timestamps,TP9,AF7,AF8,TP10,Right AUX,Marker0
1639024060.351,-0.488,-0.488,-0.488,-0.488,0.000,0
1639024060.355,-0.488,-0.977,-0.488,0.000,0.000,0
1639024060.359,36.133,8.301,1.465,8.789,0.000,0
1639024060.363,-124.023,-41.016,-5.859,-23.926,0.000,0
1639024060.367,470.703,130.371,20.996,111.328,0.000,0
1639024060.371,543.457,-14.648,13.184,234.863,0.000,0
1639024060.374,-813.477,-579.102,-43.457,52.734,0.000,0
1639024060.378,-1000.000,-691.406,-34.180,-48.828,0.000,0
1639024060.382,131.836,-399.414,-24.902,66.406,0.000,0
1639024060.386,-887.695,54.199,-52.734,231.934,0.000,0
1639024060.390,574.707,102.539,-67.383,238.281,0.000,0
1639024060.394,-661.621,-253.906,-53.223,88.379,0.000,0
1639024060.397,-1000.000,-571.777,-44.922,-30.762,0.000,0
1639024060.401,-38.086,-395.508,-35.645,62.012,0.000,0
1639024060.405,-928.711,72.754,-39.062,208.984,0.000,0
1639024060.409,718.750,195.312,-23.926,231.445,0.000,0
1639024060.413,-471.191,-150.391,11.719,126.953,0.000,0
1639024060.416,-1000.000,-729.980,1.953,-10.254,0.000,0
1639024060.420,-118.652,-760.742,-30.762,18.555,0.000,0
1639024060.424,-985.352,-131.836,-63.965,173.340,0.000,0
1639024060.428,815.430,247.070,-94.727,239.258,0.000,0
1639024060.432,-326.660,-20.020,-51.758,112.793,0.000,0
1639024060.436,-1000.000,-413.086,8.301,-28.809,0.000,0
1639024060.439,-390.625,-918.945,15.137,-16.602,0.000,0
1639024060.444,895.020,-588.867,0.488,111.816,0.000,0
1639024060.448,923.828,275.391,11.230,186.035,0.000,0
1639024060.452,-235.840,69.336,14.648,104.492,0.000,0
1639024060.456,-1000.000,-398.926,13.184,-9.277,0.000,0
1639024060.460,-576.172,-409.668,32.227,19.043,0.000,0
1639024060.464,687.500,-150.879,0.977,158.203,0.000,0
1639024060.468,-990.234,6.348,7.324,243.652,0.000,0
1639024060.471,-144.043,-178.711,13.672,147.461,0.000,0
1639024060.475,-1000.000,-409.180,29.297,-13.184,0.000,0
1639024060.479,-744.141,-474.609,81.543,-34.180,0.000,0
1639024060.483,444.336,-112.793,72.266,99.121,0.000,0
1639024060.487,-916.504,409.668,53.711,218.262,0.000,0
1639024060.495,-14.160,284.668,30.762,163.086,0.000,0
1639024060.499,-1000.000,-148.438,11.719,13.672,0.000,0
1639024060.503,-844.727,-280.273,6.836,1.465,0.000,0
1639024060.507,314.941,106.934,-30.762,135.254,0.000,0
1639024060.511,-919.434,413.574,-5.371,217.285,0.000,0
1639024060.515,10.742,96.680,64.453,145.020,0.000,0
1639024060.519,-1000.000,-661.133,65.918,-11.230,0.000,0
1639024060.523,-1000.000,-903.320,40.039,-56.641,0.000,0
1639024060.527,-170.898,-102.051,11.719,75.684,0.000,0
1639024060.531,-878.418,529.785,-20.020,203.125,0.000,0
1639024060.535,215.820,481.445,-18.555,175.293,0.000,0
1639024060.539,-1000.000,77.148,-15.137,17.090,0.000,0
1639024060.552,-1000.000,-360.840,2.930,-74.219,0.000,0
1639024060.556,-153.320,-176.270,13.184,35.156,0.000,0
1639024060.560,-904.297,423.340,2.441,192.871,0.000,0
1639024060.564,466.309,502.441,0.977,182.617,0.000,0
1639024060.568,-802.246,79.102,-8.301,30.273,0.000,0
1639024060.572,-1000.000,-425.781,-36.621,-48.828,0.000,0
1639024060.577,-329.102,-377.441,-31.250,42.480,0.000,0
1639024060.581,987.793,66.895,-1.465,192.871,0.000,0
1639024060.585,582.031,341.309,-17.578,221.191,0.000,0
1639024060.589,-705.566,102.051,-13.184,99.609,0.000,0
1639024060.593,-1000.000,-172.852,19.043,-26.367,0.000,0
1639024060.597,-379.883,40.527,5.371,20.996,0.000,0
1639024060.612,969.727,609.863,-19.531,177.246,0.000,0
1639024060.617,637.207,359.375,-20.020,234.863,0.000,0
1639024060.621,-660.645,-649.902,-10.254,114.258,0.000,0
1639024060.625,-1000.000,-591.797,4.395,-16.113,0.000,0
1639024060.630,-613.281,-88.867,-9.277,14.160,0.000,0
1639024060.634,705.566,273.926,-22.949,166.504,0.000,0
1639024060.638,739.746,509.766,-32.227,265.137,0.000,0
1639024060.643,-575.195,444.336,-31.738,156.250,0.000,0
1639024060.647,-1000.000,107.422,-11.230,-11.719,0.000,0
1639024060.651,-822.754,169.434,1.953,3.418,0.000,0
1639024060.656,387.695,615.234,-3.906,169.922,0.000,0
1639024060.660,855.469,896.973,-8.789,275.391,0.000,0
1639024060.687,-458.008,609.863,2.930,188.965,0.000,0
1639024060.691,-1000.000,122.559,13.672,37.109,0.000,0
1639024060.696,-988.770,84.473,-20.996,16.602,0.000,0
1639024060.701,-20.020,510.742,-20.996,144.531,0.000,0
1639024060.705,609.375,781.738,-7.324,278.809,0.000,0
1639024060.710,-583.984,307.617,-23.926,202.637,0.000,0
1639024060.715,-1000.000,-346.191,-0.977,7.812,0.000,0
1639024060.719,-1000.000,-405.273,5.371,-35.645,0.000,0
1639024060.724,-438.477,-112.793,-26.367,98.145,0.000,1
1639024060.729,308.594,-338.867,-22.949,221.191,0.000,0
1639024060.733,-559.082,-149.414,-10.254,158.691,0.000,0
1639024060.738,-1000.000,60.547,-11.230,-6.348,0.000,0
1639024060.764,-1000.000,-103.027,-17.578,-56.641,0.000,0
1639024060.768,-589.844,216.309,-1.465,66.406,0.000,0
1639024060.773,265.137,552.246,2.930,183.105,0.000,0
1639024060.778,-471.191,498.047,-15.625,151.855,0.000,0
1639024060.783,-1000.000,53.223,-17.578,23.438,0.000,0
1639024060.788,-1000.000,-428.223,-15.625,-32.227,0.000,0
1639024060.793,-763.672,-228.516,-33.203,51.270,0.000,0
1639024060.798,29.785,411.621,-10.742,178.223,0.000,0
1639024060.803,-452.637,474.609,33.203,158.691,0.000,0
1639024060.808,-1000.000,-118.164,41.504,-13.184,0.000,0
1639024060.813,-1000.000,-495.117,33.203,-101.562,0.000,0
1639024060.818,-816.406,-144.531,9.277,-17.578,0.000,0
1639024060.836,70.312,332.520,-20.020,109.375,0.000,0
1639024060.841,-309.570,352.051,-6.348,125.000,0.000,0
1639024060.846,-1000.000,-69.336,19.531,5.859,0.000,0
1639024060.851,-990.723,-396.484,2.441,-83.984,0.000,0
1639024060.856,-978.516,-873.535,-14.648,-6.836,0.000,0
1639024060.861,-224.121,-651.367,-12.207,145.020,0.000,0
1639024060.867,-326.660,-88.379,-13.184,194.336,0.000,0
1639024060.872,-1000.000,-330.566,-18.555,79.590,0.000,0
1639024060.877,-984.375,-430.176,-20.020,-57.129,0.000,0
1639024060.882,-1000.000,-218.750,-3.418,-29.785,0.000,0
1639024060.887,-180.176,214.355,17.578,116.211,0.000,0
1639024060.892,-45.410,484.375,1.953,188.965,0.000,0
1639024060.902,-954.102,69.824,-6.836,115.234,0.000,0
1639024060.907,-1000.000,-375.977,-11.719,-7.812,0.000,0
1639024060.913,-923.340,-235.840,-58.594,12.207,0.000,0
1639024060.918,110.352,156.250,-59.570,160.645,0.000,0
1639024060.923,548.828,489.746,-20.508,228.027,0.000,0
1639024060.928,-604.980,75.684,-8.301,121.582,0.000,0
1639024060.933,-1000.000,-473.633,-5.859,-8.301,0.000,0
1639024060.938,-824.707,-248.535,-5.371,8.301,0.000,0
1639024060.943,304.688,329.590,4.395,153.320,0.000,0
1639024060.948,-978.516,638.184,3.418,256.836,0.000,0
1639024060.953,-136.719,478.027,-11.230,192.871,0.000,0
1639024060.958,-1000.000,-504.395,-4.883,62.988,0.000,0
1639024060.962,-836.426,-766.602,-7.812,32.227,0.000,0
1639024060.967,278.809,187.012,-16.602,139.160,0.000,0
1639024060.973,-925.293,643.066,-17.578,238.770,0.000,0
1639024060.978,-4.883,382.324,-19.531,194.824,0.000,0
1639024060.983,-1000.000,-101.562,-35.645,68.848,0.000,0
1639024060.988,-976.562,-288.086,-34.180,-1.465,0.000,0
1639024060.993,1.953,-101.074,4.395,98.145,0.000,0
1639024060.998,-918.457,254.395,19.531,220.215,0.000,0
1639024061.003,149.414,378.906,5.371,188.477,0.000,0
1639024061.008,-1000.000,166.504,-0.488,55.664,0.000,0
1639024061.013,-1000.000,-34.668,4.395,-0.977,0.000,0
1639024061.018,-27.344,239.746,-5.859,84.473,0.000,0
1639024061.017,-900.879,610.352,-28.809,191.895,0.000,0
1639024061.022,437.012,584.961,-27.832,180.664,0.000,0
1639024061.027,-808.105,184.570,-17.090,37.109,0.000,0
1639024061.032,-1000.000,-66.406,-17.090,-38.574,0.000,0
1639024061.037,-169.922,99.609,-30.273,56.152,0.000,0
1639024061.042,-954.102,307.129,-39.062,160.156,0.000,0
1639024061.047,541.504,-175.293,-34.668,166.504,0.000,0
1639024061.052,-701.172,-463.379,-33.203,49.805,0.000,0
1639024061.057,-1000.000,-122.559,-18.066,-64.453,0.000,0
1639024061.062,-157.715,91.309,0.000,14.160,0.000,0
1639024061.067,-959.473,488.281,-20.508,174.805,0.000,0
1639024061.072,700.684,557.129,-41.016,198.242,0.000,0
1639024061.067,-482.910,244.629,-37.598,55.664,0.000,0
1639024061.072,-1000.000,-62.012,-27.344,-78.613,0.000,0
1639024061.077,-356.445,7.324,-65.430,-56.641,0.000,0
1639024061.082,919.922,441.895,-78.613,79.102,0.000,0
1639024061.086,850.586,491.211,-38.574,104.492,0.000,0
1639024061.091,-310.547,-55.664,-18.555,0.977,0.000,0
1639024061.096,-1000.000,-477.539,-23.926,-96.680,0.000,0
1639024061.101,-375.488,-385.254,-40.039,-92.285,0.000,0
1639024061.106,844.727,228.516,-57.617,28.320,0.000,0
1639024061.111,-977.051,479.980,-66.895,95.215,0.000,0
1639024061.116,159.180,145.508,-67.383,20.020,0.000,0
1639024061.121,-1000.000,-126.465,-70.312,-96.680,0.000,0
1639024061.112,-358.398,44.922,-74.707,-94.727,0.000,0
1639024061.117,891.602,-20.020,-54.688,42.480,0.000,0
1639024061.122,-946.289,-493.164,-20.020,123.535,0.000,0
1639024061.127,469.727,-72.266,-23.926,27.344,0.000,0
1639024061.132,-793.945,32.227,-29.785,-105.469,0.000,0
1639024061.136,-389.648,-345.703,-29.297,-114.746,0.000,0
1639024061.141,831.055,-40.527,-22.949,16.113,0.000,0
1639024061.146,-951.172,514.160,-55.664,118.164,0.000,0
1639024061.151,630.371,400.391,-107.910,66.895,0.000,0
1639024061.156,-669.434,-64.941,-79.590,-53.223,0.000,0
1639024061.161,-523.926,-92.773,-47.852,-95.703,0.000,0
1639024061.166,785.156,281.738,-41.016,-29.785,0.000,0
1639024061.154,-971.680,515.625,-29.297,57.129,0.000,0
1639024061.159,775.391,298.340,-14.160,36.621,0.000,0
1639024061.163,-352.051,16.602,-15.137,-87.891,0.000,0
1639024061.168,-472.168,-83.008,-30.273,-141.113,0.000,0
1639024061.173,764.648,130.371,-34.668,-36.621,0.000,0
1639024061.178,-984.375,270.508,-19.043,110.840,0.000,0
1639024061.182,901.367,101.074,-17.090,112.305,0.000,0
1639024061.187,63.477,-206.543,-60.059,-21.484,0.000,0
1639024061.192,-318.359,-582.031,-98.145,-91.797,0.000,0
1639024061.197,659.668,-527.344,-79.102,-42.969,0.000,0
1639024061.201,-991.211,232.910,-33.691,34.668,0.000,0
1639024061.206,936.523,589.844,-28.809,47.363,0.000,0
1639024061.192,-55.664,-124.023,-32.715,-47.363,0.000,0
1639024061.197,-815.430,-839.844,-16.602,-133.301,0.000,0
1639024061.202,366.699,-227.539,-26.855,-75.195,0.000,0
1639024061.206,-953.125,473.633,-35.645,71.777,0.000,0
1639024061.211,902.344,20.020,-34.668,79.102,0.000,0
1639024061.216,-7.324,-866.699,-54.688,-58.594,0.000,0
1639024061.220,-913.574,-671.387,-64.453,-155.273,0.000,0
1639024061.225,107.422,39.551,-56.641,-127.930,0.000,0
1639024061.230,-953.125,-172.852,-9.277,12.695,0.000,0
1639024061.234,911.621,-456.055,14.648,66.895,0.000,0
1639024061.239,-108.398,41.016,-5.859,-74.707,0.000,0
1639024061.244,-1000.000,-18.066,-4.883,-205.078,0.000,0
1639024061.228,-491.699,-730.957,5.859,-141.602,0.000,0
1639024061.232,766.602,-614.258,-18.066,6.348,0.000,0
1639024061.237,-972.168,407.227,-50.781,54.199,0.000,0
1639024061.241,-4.883,272.461,-46.387,-10.254,0.000,0
1639024061.246,-1000.000,-683.105,-27.344,-127.930,0.000,0
1639024061.251,-539.551,-877.930,-22.461,-145.020,0.000,0
1639024061.255,706.543,-160.156,-17.090,-39.551,0.000,0
1639024061.260,-930.664,87.402,-12.695,45.898,0.000,0
1639024061.264,141.602,-610.352,-9.766,-17.090,0.000,0
1639024061.269,-1000.000,-691.895,-12.695,-141.113,0.000,0
1639024061.273,-530.762,44.434,-36.621,-162.598,0.000,0
1639024061.278,710.938,92.285,-34.180,-28.320,0.000,0
1639024061.262,-907.227,-377.441,-22.461,88.867,0.000,0
1639024061.267,328.613,-47.363,-19.043,16.113,0.000,0
1639024061.271,-935.059,270.996,-31.738,-139.160,0.000,0
1639024061.276,-833.496,-371.582,-45.410,-166.992,0.000,0
1639024061.280,348.145,-697.266,-25.391,-47.363,0.000,0
1639024061.285,-887.695,-8.301,8.789,52.734,0.000,0
1639024061.289,417.969,239.746,0.488,10.742,0.000,0
1639024061.294,-870.605,-500.000,-12.207,-102.539,0.000,0
1639024061.298,-877.930,-805.664,6.348,-141.113,0.000,0
1639024061.303,334.961,21.484,-14.648,-68.359,0.000,0
1639024061.307,-923.828,435.059,-33.203,71.777,0.000,0
1639024061.311,679.688,-189.453,-34.668,91.797,0.000,0
1639024061.298,-526.367,-509.277,-47.363,-49.805,0.000,0
1639024061.302,-978.516,6.836,-23.438,-166.016,0.000,0
1639024061.306,206.055,90.820,-6.836,-128.418,0.000,0
1639024061.311,-900.391,283.203,-14.648,4.883,0.000,0
1639024061.315,645.508,475.586,0.000,39.551,0.000,0
1639024061.319,-545.410,15.137,8.301,-57.129,0.000,0
1639024061.324,-1000.000,-456.543,6.348,-130.859,0.000,0
1639024061.328,-83.008,-701.172,8.301,-60.059,0.000,0
1639024061.333,-948.242,-4.883,-12.207,65.918,0.000,0
1639024061.337,744.629,664.551,-16.113,99.121,0.000,0
1639024061.341,-411.621,44.434,-13.184,-2.441,0.000,0
1639024061.346,-1000.000,-425.293,-32.715,-127.441,0.000,0
1639024061.333,-314.453,-36.621,-24.902,-93.262,0.000,0
1639024061.338,934.082,189.941,-13.672,56.641,0.000,0
1639024061.342,829.102,81.055,-14.160,117.188,0.000,0
1639024061.346,-331.055,-0.977,-7.324,8.301,0.000,0
1639024061.351,-1000.000,-114.746,0.488,-118.652,0.000,0
1639024061.355,-522.949,-196.289,1.953,-93.262,0.000,0
1639024061.359,746.582,-405.273,0.977,38.086,0.000,0
1639024061.364,961.914,-339.844,-8.789,92.285,0.000,0
1639024061.368,-193.359,180.664,-15.625,-17.578,0.000,0
1639024061.372,-1000.000,-50.781,-4.395,-126.953,0.000,0
1639024061.376,-614.258,-291.992,-16.602,-108.398,0.000,0
1639024061.381,605.957,131.836,-28.809,3.906,0.000,0
1639024061.370,-937.500,539.062,-13.672,94.727,0.000,0
1639024061.374,49.316,253.418,9.277,51.758,0.000,0
1639024061.378,-1000.000,-280.273,-20.508,-100.586,0.000,0
1639024061.382,-681.641,-267.578,-20.508,-132.324,0.000,0
1639024061.387,536.621,-34.180,11.230,-16.602,0.000,0
1639024061.391,-905.762,65.430,-18.066,62.500,0.000,0
1639024061.395,162.598,-512.207,-25.879,31.738,0.000,0
1639024061.399,-1000.000,-719.727,-36.133,-104.004,0.000,0
1639024061.404,-762.207,-224.609,-42.480,-164.062,0.000,0
1639024061.408,429.199,-87.891,-2.930,-43.945,0.000,0
1639024061.412,-894.043,127.441,10.742,80.566,0.000,0
1639024061.416,456.543,330.078,-12.695,38.086,0.000,0
1639024061.408,-825.684,30.762,-34.668,-96.191,0.000,0
1639024061.412,-882.812,-444.824,-26.855,-144.531,0.000,0
1639024061.416,334.961,-192.383,-40.527,-57.129,0.000,0
1639024061.421,-893.555,477.051,-42.480,45.410,0.000,0
1639024061.425,562.012,438.477,-16.602,9.277,0.000,0
1639024061.429,-692.871,-433.105,-6.836,-95.703,0.000,0
1639024061.433,-986.328,-867.676,-30.762,-134.277,0.000,0
1639024061.437,185.547,-333.984,-59.082,-68.848,0.000,0
1639024061.442,-914.062,226.074,-45.410,37.598,0.000,0
1639024061.446,654.297,-62.012,-13.672,47.363,0.000,0
1639024061.450,-533.691,-393.066,-4.883,-60.059,0.000,0
1639024061.454,-1000.000,-213.867,-29.785,-158.203,0.000,0
1639024061.447,56.641,-109.375,-52.246,-113.770,0.000,0
1639024061.451,-945.312,96.680,-48.828,9.766,0.000,0
1639024061.455,810.547,269.043,-32.715,39.551,0.000,0
1639024061.459,-310.547,124.023,-22.461,-49.805,0.000,0
1639024061.463,-1000.000,-364.746,-28.320,-134.766,0.000,0
1639024061.468,-111.816,-589.355,-47.363,-113.281,0.000,0
1639024061.472,981.445,-212.402,-47.363,-7.812,0.000,0
1639024061.476,898.926,-8.301,-47.852,51.270,0.000,0
1639024061.480,-169.434,-356.445,-35.645,-21.484,0.000,0
1639024061.484,-1000.000,-895.996,-13.184,-113.770,0.000,0
1639024061.488,-287.109,-668.945,-15.625,-118.164,0.000,0
1639024061.492,924.316,116.699,-25.879,-26.367,0.000,0
1639024061.486,980.957,172.852,-47.363,45.898,0.000,0
1639024061.490,26.367,-115.234,-60.059,-14.648,0.000,0
1639024061.494,-1000.000,-185.547,-41.504,-124.512,0.000,0
1639024061.498,-426.270,-168.945,-22.949,-118.164,0.000,1
1639024061.502,825.684,-90.332,-25.391,1.465,0.000,0
1639024061.506,-954.590,-162.598,-30.762,66.406,0.000,0
1639024061.511,205.566,-187.500,-35.156,-19.531,0.000,0
1639024061.515,-1000.000,-254.883,-21.973,-127.441,0.000,0
1639024061.519,-592.285,-756.348,-9.766,-99.121,0.000,0
1639024061.523,672.363,-645.020,-26.367,19.043,0.000,0
1639024061.527,-911.621,241.211,-48.828,90.332,0.000,0
1639024061.531,451.660,181.641,-65.918,28.809,0.000,0
1639024061.525,-869.629,-431.641,-89.844,-116.699,0.000,0
1639024061.529,-665.527,-582.520,-79.102,-155.762,0.000,0
1639024061.534,639.160,-28.320,-29.297,-55.176,0.000,0
1639024061.538,-929.688,297.363,-7.324,50.293,0.000,0
1639024061.542,599.121,47.363,-3.906,28.809,0.000,0
1639024061.546,-673.340,-398.926,-20.020,-100.586,0.000,0
1639024061.550,-762.207,-619.629,-34.180,-151.855,0.000,0
1639024061.554,537.109,-406.738,-37.598,-36.621,0.000,0
1639024061.558,-951.660,-417.969,-48.340,101.074,0.000,0
1639024061.562,773.926,-75.195,-63.965,66.406,0.000,0
1639024061.566,-397.949,53.711,-52.734,-102.539,0.000,0
1639024061.570,-821.777,-413.574,-10.254,-165.039,0.000,0
1639024061.565,453.613,-203.613,-3.418,-70.312,0.000,0
1639024061.569,-954.590,420.410,-29.297,31.250,0.000,0
1639024061.573,851.562,463.867,-45.898,41.992,0.000,0
1639024061.577,-212.402,-158.203,-68.359,-48.828,0.000,0
1639024061.581,-858.887,-617.188,-62.012,-129.883,0.000,0
1639024061.585,334.473,-429.688,-43.457,-93.262,0.000,0
1639024061.589,-947.754,24.902,-31.250,24.902,0.000,0
1639024061.594,860.840,-271.973,-18.066,34.668,0.000,0
1639024061.598,-59.570,-769.043,-18.555,-72.754,0.000,0
1639024061.602,-790.527,-314.453,-37.109,-145.996,0.000,0
1639024061.606,254.395,-27.832,-49.316,-107.422,0.000,0
1639024061.610,-971.191,117.676,-29.785,7.324,0.000,0
1639024061.605,968.750,321.289,-25.391,45.898,0.000,0
1639024061.609,231.445,202.148,-30.273,-56.152,0.000,0
1639024061.613,-758.789,-236.816,-25.879,-143.066,0.000,0
1639024061.617,112.305,-323.242,-40.039,-101.562,0.000,0
1639024061.621,-983.887,157.715,-37.109,15.625,0.000,0
1639024061.625,998.535,242.188,-52.246,74.707,0.000,0
1639024061.629,311.035,-241.211,-74.219,-2.930,0.000,0
1639024061.634,-902.832,-875.488,-55.664,-105.469,0.000,0
1639024061.638,-150.879,-649.414,-39.062,-122.070,0.000,0
1639024061.642,986.328,248.047,-21.484,-14.160,0.000,0
1639024061.646,-987.305,295.898,-18.555,56.152,0.000,0
1639024061.650,370.117,-74.219,-20.996,-26.367,0.000,0
1639024061.646,-913.086,-197.754,-22.949,-144.043,0.000,0
1639024061.650,-416.992,-146.484,-49.316,-144.043,0.000,0
1639024061.654,853.027,-70.801,-81.055,6.348,0.000,0
1639024061.658,-941.406,119.141,-70.801,102.539,0.000,0
1639024061.662,476.562,186.035,-41.504,-6.836,0.000,0
1639024061.666,-820.801,-289.551,-17.578,-148.926,0.000,0
1639024061.670,-674.316,-838.867,-13.184,-144.043,0.000,0
1639024061.674,609.375,-650.391,-27.344,-35.156,0.000,0
1639024061.678,-920.410,316.895,-28.809,74.219,0.000,0
1639024061.682,576.172,317.383,-23.926,62.012,0.000,0
1639024061.686,-703.613,-383.301,-33.691,-70.312,0.000,0
1639024061.690,-797.363,-447.266,-49.805,-146.484,0.000,0
1639024061.686,471.680,97.168,-60.547,-46.387,0.000,0
1639024061.690,-915.527,358.887,-54.688,73.242,0.000,0
1639024061.694,596.680,87.891,-44.434,43.457,0.000,0
1639024061.698,-622.070,-141.113,-49.316,-60.547,0.000,0
1639024061.702,-970.215,-214.844,-30.273,-107.422,0.000,0
1639024061.706,215.820,-225.098,-11.719,-55.176,0.000,0
1639024061.710,-916.016,-521.973,-22.461,48.828,0.000,0
1639024061.714,680.176,-412.598,-39.062,26.855,0.000,0
1639024061.718,-510.254,-14.648,-40.527,-107.422,0.000,0
1639024061.722,-1000.000,-379.395,-37.109,-143.066,0.000,0
1639024061.726,75.684,-319.336,-59.082,-65.918,0.000,0
1639024061.730,-934.570,318.848,-63.965,30.273,0.000,0
1639024061.728,782.227,439.941,-38.086,55.176,0.000,0
1639024061.732,-339.355,-148.438,-46.875,-57.129,0.000,0
1639024061.736,-1000.000,-490.723,-68.848,-153.320,0.000,0
1639024061.740,-132.324,-94.238,-62.988,-113.281,0.000,0
1639024061.744,-986.816,311.523,-61.523,9.766,0.000,0
1639024061.748,818.848,5.371,-58.594,54.688,0.000,0
1639024061.752,-287.109,-433.594,-31.250,-43.945,0.000,0
1639024061.756,-1000.000,-315.918,-14.648,-133.301,0.000,0
1639024061.760,-236.816,-65.918,-43.945,-107.422,0.000,0
1639024061.764,946.289,-282.227,-41.016,18.555,0.000,0
1639024061.768,977.539,-226.074,-25.879,97.168,0.000,0
1639024061.772,50.293,153.809,-80.078,0.488,0.000,0
1639024061.771,-1000.000,-177.734,-82.031,-134.277,0.000,0
1639024061.775,-415.527,-342.773,-35.645,-131.836,0.000,0
1639024061.779,840.820,109.863,-22.949,10.254,0.000,0
1639024061.782,-957.031,444.824,-23.926,104.004,0.000,0
1639024061.786,195.312,12.207,-23.926,20.996,0.000,0
1639024061.790,-1000.000,-572.266,-48.828,-115.234,0.000,0
1639024061.794,-567.871,-616.699,-83.008,-140.137,0.000,0
1639024061.798,720.703,-182.129,-77.148,-20.508,0.000,0
1639024061.802,-969.727,19.043,-43.945,115.234,0.000,0
1639024061.806,525.879,-501.953,-55.664,59.082,0.000,0
1639024061.810,-524.902,-444.824,-74.219,-92.773,0.000,0
1639024061.814,-362.305,-62.500,-55.664,-114.746,0.000,0
1639024061.813,776.855,-38.086,-48.828,-21.973,0.000,0
1639024061.817,-931.641,169.922,-51.270,64.941,0.000,0
1639024061.821,551.758,331.055,-46.387,22.461,0.000,0
1639024061.825,-723.145,75.195,-59.570,-99.609,0.000,0
1639024061.829,-816.406,-334.473,-70.801,-130.371,0.000,0
1639024061.833,443.848,-365.234,-86.914,-9.766,0.000,0
1639024061.837,-919.434,106.445,-104.492,105.957,0.000,0
1639024061.841,643.555,230.957,-85.938,83.496,0.000,0
1639024061.844,-603.027,-540.039,-67.871,-38.086,0.000,0
1639024061.848,-874.023,-816.895,-69.824,-123.047,0.000,0
1639024061.852,377.441,47.852,-66.895,-36.133,0.000,0
1639024061.856,-929.688,414.551,-41.016,99.121,0.000,0
1639024061.856,716.797,174.805,-44.922,97.168,0.000,0
1639024061.859,-447.266,-41.504,-57.129,-15.137,0.000,0
1639024061.863,-1000.000,-137.207,-70.312,-100.586,0.000,0
1639024061.867,160.156,-44.922,-94.727,-58.594,0.000,0
1639024061.871,-972.656,83.008,-80.078,55.664,0.000,0
1639024061.875,603.027,19.531,-75.195,61.523,0.000,0
1639024061.879,-416.504,-266.113,-66.895,-26.367,0.000,0
1639024061.883,-1000.000,-609.375,-61.035,-99.609,0.000,0
1639024061.887,-175.293,-803.223,-78.613,-41.504,0.000,0
1639024061.891,994.141,-115.723,-73.242,83.496,0.000,0
1639024061.895,799.316,257.812,-49.316,86.426,0.000,0
1639024061.899,-301.270,-262.207,-55.176,-28.320,0.000,0
1639024061.898,-1000.000,-439.453,-79.590,-127.930,0.000,0
1639024061.902,-308.105,-75.195,-75.195,-73.242,0.000,0
1639024061.906,922.852,305.176,-48.828,70.801,0.000,0
1639024061.910,913.574,169.922,-45.410,109.863,0.000,0
1639024061.914,-183.594,-159.180,-66.895,-17.578,0.000,0
1639024061.918,-1000.000,-514.648,-76.172,-120.117,0.000,0
1639024061.922,-543.945,-455.566,-83.008,-91.309,0.000,0
1639024061.926,695.801,-536.621,-71.289,14.648,0.000,0
1639024061.929,-977.051,-505.371,-67.871,80.566,0.000,0
1639024061.933,-30.762,84.473,-64.453,-8.789,0.000,0
1639024061.937,-1000.000,-195.801,-68.359,-110.840,0.000,0
1639024061.941,-686.523,-454.590,-83.984,-105.957,0.000,0
1639024119.263,-125.000,-117.188,-35.645,-9.766,0.000,0
1639024119.267,-1000.000,-768.066,-32.715,-121.094,0.000,0
1639024119.271,-544.922,-754.883,-46.387,-105.957,0.000,0
1639024119.275,773.438,-52.246,-56.641,31.738,0.000,0
1639024119.278,-956.055,350.098,-40.039,107.422,0.000,0
1639024119.282,-82.031,-307.617,-33.691,26.855,0.000,0
1639024119.286,-1000.000,-991.699,-34.180,-95.703,0.000,0
1639024119.290,-691.895,-866.211,-21.484,-104.980,0.000,0
1639024119.294,572.266,-160.156,-26.367,39.062,0.000,0
1639024119.298,-843.262,456.543,-49.805,142.090,0.000,0
1639024119.301,119.141,136.719,-44.922,64.453,0.000,0
1639024119.305,-1000.000,-789.551,-38.574,-89.355,0.000,0
1639024119.310,-833.984,-912.109,-45.410,-145.508,0.000,0
1639024119.314,388.184,-137.695,-41.504,-26.367,0.000,0
1639024119.318,-820.312,503.418,-32.715,81.543,0.000,0
1639024119.322,215.820,325.195,-32.715,51.758,0.000,0
1639024119.326,-1000.000,-411.133,-33.203,-66.406,0.000,0
1639024119.330,-968.262,-883.789,-27.344,-118.652,0.000,0
1639024119.333,177.734,-551.758,-28.809,-9.766,0.000,0
1639024119.337,-821.289,57.617,-31.250,92.285,0.000,0
1639024119.341,329.590,225.586,-42.480,51.270,0.000,0
1639024119.345,-957.031,-390.137,-51.758,-89.844,0.000,0
1639024119.349,-1000.000,-829.102,-43.945,-150.879,0.000,0
1639024119.353,21.973,-202.637,-39.062,-50.781,0.000,0
1639024119.361,-840.332,500.977,-48.828,80.566,0.000,0
1639024119.365,456.543,455.566,-49.805,79.590,0.000,0
1639024119.369,-833.008,-202.637,-47.852,-48.828,0.000,0
1639024119.373,-1000.000,-597.656,-44.434,-131.348,0.000,0
1639024119.377,-105.469,-280.762,-59.082,-65.918,0.000,0
1639024119.381,-874.512,253.418,-57.129,50.781,0.000,0
1639024119.385,598.633,-226.074,-30.273,78.125,0.000,0
1639024119.389,-678.223,-984.375,-11.719,-25.879,0.000,0
1639024119.393,-1000.000,-753.906,-21.484,-122.559,0.000,0
1639024119.397,-195.312,-263.184,-61.035,-72.266,0.000,0
1639024119.401,-933.105,398.926,-60.059,40.527,0.000,0
1639024119.405,784.668,607.910,-48.828,46.875,0.000,0
1639024119.417,-451.172,-109.375,-37.598,-49.805,0.000,0
1639024119.422,-1000.000,-743.164,-41.016,-141.113,0.000,0
1639024119.426,-287.598,-392.578,-57.129,-111.328,0.000,0
1639024119.430,997.559,348.145,-35.645,18.066,0.000,0
1639024119.434,927.246,573.242,-1.465,94.238,0.000,0
1639024119.438,-240.234,-130.371,1.953,30.762,0.000,0
1639024119.442,-1000.000,-842.285,-23.438,-108.398,0.000,0
1639024119.447,-403.320,-835.938,-54.688,-100.098,0.000,0
1639024119.451,895.996,-42.969,-72.754,30.762,0.000,0
1639024119.455,-964.844,565.430,-65.918,90.820,0.000,0
1639024119.459,-80.566,212.891,-40.527,1.465,0.000,0
1639024119.463,-1000.000,-428.223,-20.996,-118.164,0.000,0
1639024119.478,-545.898,-353.027,-38.574,-101.074,0.000,0
1639024119.482,740.723,-133.301,-41.992,53.711,0.000,0
1639024119.487,-879.395,-347.656,-16.113,158.203,0.000,0
1639024119.491,44.922,-255.859,-24.414,45.410,0.000,0
1639024119.495,-1000.000,-574.707,-37.109,-120.605,0.000,0
1639024119.500,-685.547,-782.227,-32.227,-153.320,0.000,0
1639024119.504,533.691,-145.508,-39.551,-38.086,0.000,0
1639024119.509,-836.914,565.918,-34.668,83.496,0.000,0
1639024119.513,147.949,382.812,-38.086,55.176,0.000,0
1639024119.517,-1000.000,-246.582,-45.898,-78.613,0.000,0
1639024119.522,-860.352,-439.453,-40.527,-108.398,0.000,0
1639024119.526,353.516,63.965,-23.438,5.859,0.000,0
1639024119.542,-818.848,586.426,-20.508,110.352,0.000,0
1639024119.547,238.281,390.625,-49.805,49.316,0.000,0
1639024119.552,-1000.000,-269.531,-59.082,-114.258,0.000,0
1639024119.556,-988.281,-569.336,-47.363,-161.621,0.000,0
1639024119.561,151.367,-107.910,-39.062,-46.387,0.000,0
1639024119.565,-825.684,333.008,-27.344,75.195,0.000,0
1639024119.570,369.629,68.359,-48.828,65.918,0.000,0
1639024119.574,-917.969,-560.547,-60.059,-31.250,0.000,0
1639024119.579,-1000.000,-967.773,-41.016,-88.867,0.000,0
1639024119.583,-18.555,-971.680,-37.598,-31.250,0.000,0
1639024119.588,-852.051,-61.523,-33.691,57.617,0.000,0
1639024119.592,512.207,551.270,-27.832,55.176,0.000,0
1639024119.609,-777.344,-34.180,-31.738,-61.035,0.000,0
1639024119.614,-1000.000,-489.746,-44.922,-153.809,0.000,0
1639024119.619,-106.445,-150.391,-32.227,-71.777,0.000,0
1639024119.623,-890.625,497.070,-33.203,90.820,0.000,0
1639024119.628,676.758,575.684,-38.086,104.492,0.000,0
1639024119.633,-585.938,-190.430,-15.625,-14.648,0.000,0
1639024119.637,-1000.000,-824.219,-25.391,-106.445,0.000,0
1639024119.642,-202.148,-372.559,-43.945,-70.801,0.000,0
1639024119.647,-944.824,452.637,-60.059,36.621,0.000,0
1639024119.651,820.312,478.027,-45.410,62.988,0.000,0
1639024119.656,-395.996,-162.598,-27.832,-24.414,0.000,0
1639024119.661,-1000.000,-532.227,-35.156,-121.094,0.000,0
1639024119.679,-302.246,-345.215,-44.434,-86.426,0.000,0
1639024119.684,980.469,304.199,-48.340,27.832,0.000,0
1639024119.689,958.008,632.324,-32.227,78.613,0.000,0
1639024119.693,-186.523,82.520,-33.203,3.418,0.000,0
1639024119.698,-1000.000,-839.844,-41.016,-95.703,0.000,0
1639024119.703,-411.621,-875.488,-17.578,-83.008,0.000,0
1639024119.708,880.859,-123.535,-8.789,49.316,0.000,0
1639024119.713,-940.918,335.449,-34.180,110.840,0.000,0
1639024119.717,-25.391,201.172,-50.781,19.531,0.000,0
1639024119.722,-1000.000,-286.621,-48.828,-96.680,0.000,0
1639024119.727,-554.688,-318.359,-38.086,-83.008,0.000,0
1639024119.732,733.398,250.000,-31.738,31.250,0.000,0
1639024119.742,-876.465,575.195,-31.738,69.336,0.000,0
1639024119.747,77.637,175.781,-35.645,-9.766,0.000,0
1639024119.752,-1000.000,-375.000,-35.156,-111.328,0.000,0
1639024119.757,-720.703,-414.551,-41.016,-106.934,0.000,0
1639024119.762,544.434,120.605,-55.176,35.645,0.000,0
1639024119.767,-835.449,350.586,-52.734,130.371,0.000,0
1639024119.771,175.293,107.910,-40.039,43.457,0.000,0
1639024119.776,-1000.000,-325.684,-20.508,-95.703,0.000,0
1639024119.781,-880.859,-512.207,-22.461,-137.207,0.000,0
1639024119.786,330.078,-17.578,-12.207,-30.273,0.000,0
1639024119.791,-818.359,580.078,-17.090,87.891,0.000,0
1639024119.796,251.953,-152.344,-20.020,74.707,0.000,0
1639024119.800,-1000.000,-962.891,-24.414,-60.059,0.000,0
1639024119.805,-996.094,-600.098,-45.898,-126.465,0.000,0
1639024119.810,139.648,-31.250,-44.922,-33.691,0.000,0
1639024119.814,-829.590,500.488,-47.852,77.148,0.000,0
1639024119.819,395.508,313.965,-56.152,68.359,0.000,0
1639024119.824,-899.414,-407.715,-43.945,-54.688,0.000,0
1639024119.829,-1000.000,-868.164,-30.273,-112.793,0.000,0
1639024119.834,-10.742,-472.656,-47.852,-30.762,0.000,0
1639024119.839,-857.910,371.094,-45.898,86.426,0.000,0
1639024119.844,541.504,566.406,-24.902,69.824,0.000,0
1639024119.848,-741.211,-31.738,-34.668,-62.988,0.000,0
1639024119.853,-1000.000,-491.699,-48.828,-140.137,0.000,0
1639024119.852,-131.348,-190.430,-40.039,-70.801,0.000,0
1639024119.857,-897.461,463.379,-45.898,78.125,0.000,0
1639024119.862,691.895,561.035,-36.133,114.258,0.000,0
1639024119.867,-565.918,-23.438,-26.855,-39.062,0.000,0
1639024119.872,-1000.000,-586.426,-31.738,-163.574,0.000,0
1639024119.876,-243.652,-452.148,-37.109,-111.816,0.000,0
1639024119.881,-968.750,-389.160,-41.016,41.016,0.000,0
1639024119.886,861.328,-497.559,-27.344,97.168,0.000,0
1639024119.891,-342.773,-186.035,-42.969,-7.324,0.000,0
1639024119.896,-1000.000,-413.086,-49.316,-104.492,0.000,0
1639024119.900,-333.008,-348.633,-38.086,-84.961,0.000,0
1639024119.905,960.938,299.805,-41.016,25.391,0.000,0
1639024119.900,973.633,633.301,-37.109,77.148,0.000,0
1639024119.905,-169.434,206.543,-56.152,-15.625,0.000,0
1639024119.910,-1000.000,-432.129,-63.965,-114.746,0.000,0
1639024119.914,-428.711,-406.250,-26.855,-75.684,0.000,0
1639024119.919,860.352,198.730,-13.184,55.664,0.000,0
1639024119.924,-926.270,391.113,-38.574,102.051,0.000,0
1639024119.929,10.742,-160.645,-40.039,17.090,0.000,0
1639024119.933,-1000.000,-779.297,-39.062,-107.910,0.000,0
1639024119.938,-532.715,-564.453,-30.273,-96.680,0.000,0
1639024119.943,780.762,115.723,-36.133,9.277,0.000,0
1639024119.948,-875.000,408.203,-69.824,68.359,0.000,0
1639024119.952,107.422,236.816,-62.988,16.602,0.000,0
1639024119.944,-1000.000,-246.582,-32.227,-118.652,0.000,0
1639024119.949,-777.344,-826.660,-19.043,-125.000,0.000,0
1639024119.953,468.262,-641.113,-38.574,9.766,0.000,0
1639024119.958,-828.613,468.262,-53.711,94.727,0.000,0
1639024119.963,198.242,397.949,-45.410,33.203,0.000,0
1639024119.967,-1000.000,-585.938,-38.574,-87.891,0.000,0
1639024119.972,-892.578,-883.789,-2.930,-81.543,0.000,0
1639024119.977,315.430,-150.391,0.977,46.875,0.000,0
1639024119.981,-820.801,633.301,-49.316,112.305,0.000,0
1639024119.986,298.340,518.555,-59.082,62.988,0.000,0
1639024119.991,-986.816,-193.848,-25.391,-64.453,0.000,0
1639024119.995,-1000.000,-517.578,-32.227,-132.812,0.000,0
1639024119.984,102.539,-148.926,-62.988,-47.363,0.000,0
1639024119.989,-844.727,317.871,-34.180,75.195,0.000,0
1639024119.993,460.938,386.230,-25.879,62.988,0.000,0
1639024119.998,-926.758,-172.852,-43.457,-84.961,0.000,0
1639024120.002,-946.289,-603.027,-46.387,-132.324,0.000,0
1639024120.007,312.500,-405.273,-53.711,-23.926,0.000,0
1639024120.012,-885.742,20.996,-59.082,76.172,0.000,0
1639024120.016,570.312,80.566,-42.480,61.035,0.000,0
1639024120.021,-684.570,-532.715,-16.113,-55.664,0.000,0
1639024120.025,-1000.000,-999.512,-30.273,-137.695,0.000,0
1639024120.030,-138.184,-471.680,-66.406,-79.590,0.000,0
1639024120.034,-905.762,548.828,-52.734,58.105,0.000,0
1639024120.021,730.469,426.758,-25.879,114.258,0.000,0
1639024120.026,-523.926,-720.215,-36.133,7.812,0.000,0
1639024120.030,-1000.000,-830.078,-31.250,-131.348,0.000,0
1639024120.035,-235.840,-182.617,-14.160,-92.285,0.000,0
1639024120.039,-977.051,-61.035,-28.809,44.434,0.000,0
1639024120.044,894.043,-442.383,-53.223,90.332,0.000,0
1639024120.048,-278.320,-354.492,-52.734,-16.113,0.000,0
1639024120.053,-1000.000,-307.617,-35.156,-127.930,0.000,0
1639024120.057,-351.074,-825.684,-27.832,-85.938,0.000,1
1639024120.062,938.477,-600.098,-22.461,77.148,0.000,0
1639024120.066,-989.258,518.555,-25.879,144.531,0.000,0
1639024120.071,-99.609,402.832,-53.711,16.113,0.000,0
1639024120.057,-1000.000,-666.992,-54.199,-124.512,0.000,0
1639024120.062,-446.289,-777.344,-26.855,-119.629,0.000,0
1639024120.066,846.191,321.777,-18.066,-5.371,0.000,0
1639024120.070,-914.551,806.641,-22.949,78.125,0.000,0
1639024120.075,20.996,-221.680,-26.855,24.414,0.000,0
1639024120.079,-1000.000,-1000.000,-37.598,-86.426,0.000,0
1639024120.083,-597.168,-725.098,-31.250,-105.469,0.000,0
1639024120.088,682.129,-85.449,-20.996,11.719,0.000,0
1639024120.092,-856.934,-192.383,-25.879,116.211,0.000,0
1639024120.097,145.020,-243.652,-55.664,37.598,0.000,0
1639024120.101,-1000.000,-34.668,-59.082,-121.582,0.000,0
1639024120.105,-787.109,-505.859,-34.180,-137.695,0.000,0
1639024120.093,458.984,-681.152,-24.414,-4.883,0.000,0
1639024120.098,-828.125,290.527,-21.973,86.426,0.000,0
1639024120.102,233.887,733.398,-21.973,34.180,0.000,0
1639024120.106,-1000.000,-334.961,-10.254,-71.777,0.000,0
1639024120.111,-920.898,-850.098,-22.949,-125.977,0.000,0
1639024120.115,272.461,-151.367,-65.918,-53.223,0.000,0
1639024120.119,-823.242,527.344,-69.824,60.547,0.000,0
1639024120.124,323.242,44.434,-48.828,53.223,0.000,0
1639024120.128,-972.656,-754.883,-41.992,-69.336,0.000,0
1639024120.132,-1000.000,-404.785,-46.387,-135.742,0.000,0
1639024120.136,99.121,-83.008,-34.180,-38.574,0.000,0
1639024120.141,-845.215,379.883,-19.043,80.566,0.000,0
1639024120.130,482.422,653.809,-20.996,67.383,0.000,0
1639024120.135,-809.570,212.891,-27.344,-67.383,0.000,0
1639024120.139,-1000.000,-362.305,-48.340,-138.672,0.000,0
1639024120.143,-31.738,-157.227,-65.430,-37.109,0.000,0
1639024120.147,-901.367,567.871,-52.734,80.078,0.000,0
1639024120.151,576.660,475.098,-36.621,57.617,0.000,0
1639024120.156,-647.949,-321.289,-33.691,-63.965,0.000,0
1639024120.160,-1000.000,-915.039,-30.762,-141.113,0.000,0
1639024120.164,-144.043,-355.469,-26.367,-78.125,0.000,0
1639024120.168,-915.527,632.812,-36.133,37.598,0.000,0
1639024120.173,761.230,571.777,-57.129,58.594,0.000,0
1639024120.177,-471.680,-72.754,-42.969,-34.180,0.000,0
1639024120.169,-1000.000,-395.996,-39.551,-118.652,0.000,0
1639024120.173,-254.395,-366.699,-32.227,-55.664,0.000,0
1639024120.178,-982.910,71.289,-30.273,79.590,0.000,0
1639024120.182,901.367,513.184,-42.480,89.355,0.000,0
1639024120.186,-270.508,231.934,-40.039,-20.996,0.000,0
1639024120.190,-1000.000,-547.363,-42.480,-149.902,0.000,0
1639024120.194,-395.508,-1000.000,-15.625,-125.488,0.000,0
1639024120.198,902.344,-441.895,-17.578,30.762,0.000,0
1639024120.203,-974.121,631.348,-29.785,83.984,0.000,0
1639024120.207,-91.309,324.219,-21.484,6.836,0.000,0
1639024120.211,-1000.000,-578.125,-35.156,-92.285,0.000,0
1639024120.215,-487.305,-521.484,-45.898,-95.703,0.000,0
1639024120.207,807.129,329.102,-46.875,6.836,0.000,0
1639024120.211,-903.809,651.855,-41.016,78.613,0.000,0
1639024120.215,24.902,170.410,-42.969,1.465,0.000,0
1639024120.219,-1000.000,-395.020,-47.363,-144.043,0.000,0
1639024120.223,-655.762,-580.566,-43.457,-145.508,0.000,0
1639024120.228,615.723,-134.766,-25.879,4.395,0.000,0
1639024120.232,-846.680,102.051,-24.902,124.023,0.000,0
1639024120.236,145.996,-28.320,-32.715,46.875,0.000,0
1639024120.240,-1000.000,-228.516,-32.227,-119.141,0.000,0
1639024120.244,-831.543,-581.055,-35.156,-143.066,0.000,0
1639024120.248,392.578,-568.359,-24.414,-21.973,0.000,0
1639024120.252,-823.242,350.098,-37.109,79.590,0.000,0
1639024120.247,241.699,603.027,-49.805,42.969,0.000,0
1639024120.251,-1000.000,-370.605,-42.480,-81.055,0.000,0
1639024120.255,-943.359,-681.641,-30.273,-103.027,0.000,0
1639024120.259,238.770,70.801,-16.602,-7.324,0.000,0
1639024120.263,-824.707,717.285,-33.203,76.660,0.000,0
1639024120.267,347.168,141.602,-48.828,69.824,0.000,0
1639024120.271,-949.219,-772.461,-45.898,-56.152,0.000,0
1639024120.275,-1000.000,-761.719,-30.273,-134.766,0.000,0
1639024120.279,68.848,-147.949,-41.992,-40.527,0.000,0
1639024120.283,-848.633,217.773,-67.383,62.500,0.000,0
1639024120.287,498.047,205.078,-43.945,36.621,0.000,0
1639024120.292,-788.574,-38.086,-31.250,-60.059,0.000,0
1639024120.288,-1000.000,-524.902,-48.828,-121.582,0.000,0
1639024120.292,-78.613,-435.059,-42.969,-62.988,0.000,0
1639024120.296,-882.324,312.012,-28.320,72.754,0.000,0
1639024120.300,648.926,686.523,-29.297,82.520,0.000,0
1639024120.304,-618.652,-45.410,-43.457,-41.016,0.000,0
1639024120.308,-1000.000,-886.230,-47.363,-136.230,0.000,0
1639024120.312,-173.340,-644.043,-40.527,-80.078,0.000,0
1639024120.316,-930.664,128.418,-44.922,82.520,0.000,0
1639024120.320,800.293,273.438,-51.758,142.578,0.000,0
1639024120.324,-428.223,-597.168,-47.852,-5.371,0.000,0
1639024120.328,-1000.000,-961.426,-39.551,-154.297,0.000,0
1639024120.332,-268.555,-258.301,-32.715,-115.723,0.000,0
1639024120.328,-998.535,288.086,-25.391,41.016,0.000,0
1639024120.332,936.035,497.070,-38.086,86.426,0.000,0
1639024120.336,-215.820,247.559,-71.777,-32.715,0.000,0
1639024120.340,-1000.000,-308.105,-58.105,-134.277,0.000,0
1639024120.344,-386.719,-464.844,-39.062,-104.004,0.000,0
1639024120.348,905.273,-99.609,-31.738,36.621,0.000,0
1639024120.352,-957.520,477.051,-44.434,110.352,0.000,0
1639024120.356,-52.246,272.949,-46.387,14.648,0.000,0
1639024120.360,-1000.000,-618.164,-21.484,-125.000,0.000,0
1639024120.364,-518.066,-580.078,-34.668,-116.699,0.000,0
1639024120.368,773.926,297.363,-49.316,16.113,0.000,0
1639024120.372,-887.695,753.418,-41.992,80.078,0.000,0
1639024120.369,56.152,-168.945,-35.156,28.809,0.000,0
1639024120.373,-1000.000,-1000.000,-24.902,-73.242,0.000,0
1639024120.377,-684.082,-541.016,-35.645,-106.445,0.000,0
1639024120.381,613.770,128.906,-65.918,4.883,0.000,0
1639024120.385,-899.414,424.316,-54.199,90.820,0.000,0
1639024120.389,64.453,91.309,-26.367,23.438,0.000,0
1639024120.393,-1000.000,-534.180,-33.203,-101.074,0.000,0
1639024120.397,-851.074,-793.945,-42.480,-132.812,0.000,0
1639024120.401,362.793,-621.094,-42.969,-11.230,0.000,0
1639024120.405,-821.289,322.754,-52.734,99.609,0.000,0
1639024120.409,245.117,649.902,-52.734,52.734,0.000,0
1639024120.413,-1000.000,-284.180,-40.039,-79.590,0.000,0
1639024120.409,-972.168,-638.672,-26.855,-120.605,0.000,0
1639024120.413,182.129,104.492,-36.133,-23.438,0.000,0
1639024120.417,-825.195,754.395,-58.105,60.059,0.000,0
1639024120.421,354.980,379.883,-47.852,49.805,0.000,0
1639024120.425,-934.570,-518.555,-41.016,-55.664,0.000,0
1639024120.429,-1000.000,-858.887,-38.086,-111.816,0.000,0
1639024120.433,18.555,-308.105,-42.969,-23.438,0.000,0
1639024120.437,-851.562,-42.480,-46.875,77.637,0.000,0
1639024120.441,516.113,-211.914,-53.223,55.176,0.000,0
1639024120.445,-770.020,-68.848,-34.180,-58.105,0.000,0
1639024120.449,-1000.000,-374.512,-27.344,-132.324,0.000,0
1639024120.453,-106.445,-276.855,-47.363,-67.383,0.000,0
1639024120.450,-888.672,492.188,-50.293,57.129,0.000,0
1639024120.454,666.504,740.234,-63.965,60.059,0.000,0
1639024120.458,-598.633,36.621,-66.406,-67.871,0.000,0
1639024120.462,-1000.000,-607.910,-41.992,-149.414,0.000,0
1639024120.466,-186.035,-233.887,-36.133,-79.102,0.000,0
1639024120.470,-942.383,382.812,-29.785,53.223,0.000,0
1639024120.474,833.008,347.656,-43.457,77.148,0.000,0
1639024120.478,-379.883,-565.430,-49.316,-29.297,0.000,0
1639024120.482,-1000.000,-917.969,-40.527,-144.531,0.000,0
1639024120.486,-274.414,-205.078,-46.875,-100.098,0.000,0
1639024120.490,993.164,324.219,-45.410,46.387,0.000,0
1639024120.494,955.078,465.332,-28.320,74.707,0.000,0
1639024120.492,-178.711,275.879,-14.160,-37.109,0.000,0
1639024120.496,-1000.000,-223.633,-22.461,-148.438,0.000,0
1639024120.500,-412.598,-447.754,-43.945,-118.164,0.000,0
1639024120.504,884.277,195.801,-57.617,17.090,0.000,0
1639024120.508,-947.266,746.094,-52.734,83.984,0.000,0
1639024120.511,-39.062,144.531,-41.016,-11.719,0.000,0
1639024120.515,-1000.000,-767.578,-36.133,-127.441,0.000,0
1639024120.519,-542.969,-777.344,-37.598,-122.070,0.000,0
1639024120.523,746.094,240.723,-37.109,2.930,0.000,0
1639024120.527,-880.371,713.379,-40.039,106.445,0.000,0
1639024120.531,70.312,131.836,-49.316,10.742,0.000,0
1639024120.535,-1000.000,-440.430,-58.105,-133.301,0.000,0
1639024120.533,-706.543,-303.711,-57.129,-125.977,0.000,0
1639024120.537,559.082,248.047,-50.293,0.488,0.000,0
1639024120.541,-836.914,518.066,-49.316,101.074,0.000,0
1639024120.545,171.875,351.074,-48.340,43.457,0.000,0
1639024120.549,-1000.000,-188.477,-37.109,-115.234,0.000,0
1639024120.553,-885.742,-624.023,-33.691,-158.203,0.000,0
1639024120.557,311.523,-733.887,-26.855,-20.508,0.000,0
1639024120.561,-820.801,-65.430,-53.711,107.910,0.000,0
1639024120.565,264.648,498.535,-61.523,60.059,0.000,0
1639024120.569,-1000.000,-296.387,-27.832,-62.500,0.000,0
1639024120.572,-998.047,-724.609,-23.926,-115.723,0.000,0
1639024120.576,141.602,29.785,-31.250,-36.621,0.000,0
1639024120.576,-825.195,671.875,-53.711,56.152,0.000,0
1639024120.580,365.234,307.617,-48.340,34.668,0.000,0
1639024120.584,-922.363,-376.465,-55.664,-67.871,0.000,0
1639024120.588,-1000.000,-498.535,-88.867,-147.949,0.000,0
1639024120.592,-19.043,-41.504,-59.570,-73.242,0.000,0
1639024120.596,-857.422,61.035,-18.555,88.867,0.000,0
1639024120.600,542.480,-63.477,-8.789,110.352,0.000,0
1639024120.603,-740.723,-81.543,-20.508,-36.133,0.000,0
1639024120.607,-1000.000,-451.660,-36.621,-144.531,0.000,0
1639024120.611,-139.648,-604.492,-50.293,-90.332,0.000,0
1639024120.615,-902.832,32.715,-54.688,31.738,0.000,0
1639024120.619,701.660,602.539,-44.922,80.078,0.000,0
1639024120.619,-556.641,20.996,-30.762,-7.812,0.000,0
1639024120.623,-1000.000,-687.988,-27.344,-111.328,0.000,0
1639024120.627,-224.609,-338.379,-29.785,-84.473,0.000,0
1639024120.631,-954.590,483.887,-28.809,43.945,0.000,0
1639024120.635,837.402,455.566,-33.691,85.938,0.000,0
1639024120.639,-378.906,-331.543,-36.621,-16.602,0.000,0
1639024120.642,-1000.000,-916.992,-47.852,-132.324,0.000,0
1639024120.646,-320.312,-700.684,-42.480,-107.422,0.000,0
1639024120.650,963.867,-80.566,-32.715,42.969,0.000,0
1639024120.654,981.445,-152.832,-42.969,91.797,0.000,0
1639024120.658,-152.344,-235.352,-36.621,-10.254,0.000,0
1639024120.662,-1000.000,-342.285,-35.156,-105.957,0.000,0
1639024120.662,-443.848,-570.801,-21.484,-78.613,0.000,0
1639024120.666,852.539,-54.199,-16.602,48.340,0.000,0
1639024120.670,-930.664,614.258,-41.992,87.402,0.000,0
1639024120.674,-37.598,339.355,-45.410,-10.254,0.000,0
1639024120.678,-1000.000,-549.805,-34.668,-114.746,0.000,0
1639024120.682,-552.246,-839.355,-36.621,-126.465,0.000,0
1639024120.685,679.688,-188.477,-33.691,0.488,0.000,0
1639024120.689,-866.211,419.434,-39.551,93.750,0.000,0
1639024120.693,81.055,-239.746,-65.918,25.879,0.000,0
1639024120.697,-1000.000,-982.422,-54.688,-95.703,0.000,0
1639024120.701,-746.094,-475.586,-33.691,-115.723,0.000,0
1639024120.705,507.324,140.137,-37.598,-0.488,0.000,0
1639024120.705,-831.543,479.492,-50.293,92.285,0.000,0
1639024120.709,186.523,424.316,-54.199,41.504,0.000,0
1639024120.713,-1000.000,-118.164,-48.828,-86.914,0.000,0
1639024120.717,-913.086,-461.426,-53.223,-130.859,0.000,0
1639024120.721,300.293,-133.789,-50.293,-21.973,0.000,0
1639024120.725,-873.535,311.035,-41.016,76.172,0.000,0
1639024120.729,197.266,132.324,-49.805,23.438,0.000,0
1639024120.732,-996.582,-542.969,-40.039,-83.008,0.000,0
1639024120.736,-1000.000,-959.961,-6.836,-100.098,0.000,0
1639024120.740,134.277,-197.266,-13.672,-24.414,0.000,0
1639024120.744,-830.078,563.477,-25.391,78.613,0.000,0
1639024120.748,396.484,226.074,-31.250,65.430,0.000,0
1639024120.749,-893.066,-289.062,-39.062,-58.594,0.000,0
1639024120.752,-1000.000,-377.441,-52.734,-131.348,0.000,0
1639024120.756,-41.016,-24.902,-62.012,-72.266,0.000,0
1639024120.760,-849.609,375.000,-39.062,51.270,0.000,0
1639024120.764,518.066,395.996,-39.062,25.879,0.000,0
1639024120.768,-780.273,-243.164,-35.156,-71.289,0.000,0
1639024120.772,-1000.000,-691.895,-25.879,-116.699,0.000,0
1639024120.776,-151.855,-814.453,-33.691,-49.316,0.000,0
1639024120.780,-908.691,-281.250,-26.855,91.797,0.000,0
1639024120.783,715.332,689.453,-25.391,99.121,0.000,0
1639024120.787,-541.504,162.598,-39.062,-42.480,0.000,0
1639024120.791,-1000.000,-666.504,-36.621,-136.230,0.000,0
1639024120.792,-239.746,-370.605,-35.645,-83.008,0.000,0
1639024120.796,-966.309,333.496,-34.180,49.805,0.000,0
1639024120.800,858.887,330.566,-35.156,96.191,0.000,0
1639024120.803,-344.727,-119.629,-22.461,15.137,0.000,0
1639024120.807,-1000.000,-497.070,-37.109,-96.680,0.000,0
1639024120.811,-345.215,-517.578,-48.340,-73.730,0.000,0
1639024120.815,945.801,-22.461,-52.246,29.785,0.000,0
1639024120.819,993.164,-24.902,-44.922,74.219,0.000,0
1639024120.823,-140.137,-141.602,-31.250,-8.301,0.000,0
1639024120.827,-1000.000,-210.449,-47.852,-144.531,0.000,0
1639024120.830,-479.980,-475.586,-49.316,-133.301,0.000,0
1639024120.834,812.500,43.457,-38.086,2.930,0.000,0
1639024120.835,-912.109,721.680,-35.156,89.844,0.000,0
1639024120.839,7.812,418.945,-32.715,32.715,0.000,0
1639024120.843,-1000.000,-476.074,-39.062,-102.051,0.000,0
1639024120.847,-621.582,-610.840,-65.430,-127.441,0.000,0
1639024120.851,660.645,101.562,-66.895,-14.648,0.000,0
1639024120.855,-860.840,470.215,-52.246,74.219,0.000,0
1639024120.858,90.820,-229.492,-38.574,19.043,0.000,0
1639024120.862,-1000.000,-834.473,-23.926,-98.633,0.000,0
1639024120.866,-774.414,-448.730,-39.551,-116.699,0.000,0
1639024120.870,468.750,163.086,-58.594,-23.438,0.000,0
1639024120.874,-827.637,146.484,-42.480,85.449,0.000,0
1639024120.878,206.055,-138.184,-43.945,56.641,0.000,0
1639024120.879,-1000.000,-158.203,-41.504,-81.543,0.000,0
1639024120.883,-926.270,-498.047,-21.973,-122.070,0.000,0
1639024120.886,253.418,-200.195,-41.504,-30.762,0.000,0
1639024120.890,-821.289,589.844,-63.477,59.570,0.000,0
1639024120.894,309.082,575.684,-48.340,33.203,0.000,0
1639024120.898,-983.398,-385.742,-24.902,-69.336,0.000,0
1639024120.902,-1000.000,-994.629,-41.016,-107.422,0.000,0
1639024120.906,98.633,-539.551,-59.570,-35.156,0.000,0
1639024120.910,-833.496,390.625,-39.062,82.520,0.000,0
1639024120.913,422.852,447.266,-20.996,89.355,0.000,0
1639024120.917,-869.629,-243.652,-15.137,-56.641,0.000,0
1639024120.921,-1000.000,-438.477,-31.250,-151.367,0.000,2
1639024120.922,-51.758,-0.488,-46.387,-73.730,0.000,0
1639024120.926,-866.699,416.016,-32.715,62.988,0.000,0
1639024120.930,581.543,396.973,-36.621,60.059,0.000,0
1639024120.934,-693.848,38.574,-57.617,-72.266,0.000,0
1639024120.938,-1000.000,-421.875,-58.594,-144.043,0.000,0
1639024120.941,-169.434,-680.176,-48.828,-77.148,0.000,0
1639024120.945,-914.551,-93.262,-54.688,54.688,0.000,0
1639024120.949,734.375,653.809,-49.805,74.219,0.000,0
1639024120.953,-518.066,148.438,-39.551,-58.594,0.000,0
1639024120.957,-1000.000,-665.039,-41.016,-152.344,0.000,0
1639024120.961,-259.766,-644.043,-44.434,-90.332,0.000,0
1639024120.965,-978.516,233.398,-36.621,59.082,0.000,0
1639024120.967,877.441,603.027,-32.227,119.629,0.000,0
1639024120.971,-320.312,-38.086,-52.246,-15.137,0.000,0
1639024120.975,-1000.000,-541.016,-46.875,-151.367,0.000,0
1639024120.978,-367.188,-296.875,-33.691,-112.793,0.000,0
1639024120.982,929.199,256.348,-47.852,31.738,0.000,0
1639024120.986,-996.582,278.320,-43.457,95.215,0.000,0
1639024120.990,-128.906,-193.848,-36.133,4.883,0.000,0
1639024120.994,-1000.000,-635.742,-34.668,-99.121,0.000,0
1639024120.998,-506.836,-632.812,-29.297,-96.680,0.000,0
1639024121.001,786.133,-286.133,-40.527,15.137,0.000,0
1639024121.005,-907.715,441.895,-46.875,78.613,0.000,0
1639024121.009,4.883,406.250,-40.039,-2.930,0.000,0
1639024121.011,-1000.000,-477.051,-23.926,-108.887,0.000,0
1639024121.015,-656.738,-821.777,-29.785,-109.375,0.000,0
1639024121.019,618.164,-37.109,-45.410,4.883,0.000,0
1639024121.023,-850.586,733.398,-31.250,121.582,0.000,0
1639024121.027,103.516,203.613,-24.902,66.406,0.000,0
1639024121.031,-1000.000,-798.340,-47.852,-94.238,0.000,0
1639024121.034,-819.824,-811.035,-50.781,-139.160,0.000,0
1639024121.038,407.227,134.277,-20.508,-23.926,0.000,0
1639024121.042,-822.754,132.812,-25.391,91.797,0.000,0
1639024121.046,196.289,-369.141,-38.086,33.203,0.000,0
1639024121.050,-1000.000,-319.336,-36.133,-87.402,0.000,0
1639024121.054,-948.730,-525.391,-53.223,-109.375,0.000,0
1639024121.056,209.473,-157.227,-44.922,-9.766,0.000,0
1639024121.060,-820.312,545.410,-31.738,96.191,0.000,0
1639024121.064,317.871,592.285,-38.574,62.988,0.000,0
1639024121.068,-970.215,-188.477,-42.969,-61.523,0.000,0
1639024121.071,-1000.000,-840.332,-41.992,-131.836,0.000,0
1639024121.075,52.246,-460.938,-37.109,-39.551,0.000,0
1639024121.079,-842.285,268.066,-31.250,80.566,0.000,0
1639024121.083,466.309,186.035,-20.996,78.613,0.000,0
1639024121.087,-830.566,-696.289,-21.973,-27.344,0.000,0
1639024121.091,-1000.000,-803.223,-31.250,-124.023,0.000,0
1639024121.094,-52.734,19.043,-48.340,-69.336,0.000,0
1639024121.098,-877.441,459.473,-57.129,69.336,0.000,0
1639024121.101,633.789,418.457,-58.594,65.430,0.000,0
1639024121.105,-635.742,70.312,-68.359,-66.895,0.000,0
1639024121.108,-1000.000,-381.348,-50.293,-122.559,0.000,0
1639024121.112,-160.156,-312.012,-31.250,-52.734,0.000,0
1639024121.116,-921.387,282.715,-31.250,59.082,0.000,0
1639024121.120,772.461,478.027,-41.016,77.148,0.000,0
1639024121.124,-460.938,-145.508,-25.879,-22.949,0.000,0
1639024121.128,-1000.000,-866.211,-12.695,-99.121,0.000,0
1639024121.131,-258.789,-691.406,-40.039,-63.477,0.000,0
1639024121.135,-984.375,459.473,-44.922,47.852,0.000,0
1639024121.139,903.809,757.812,-31.738,98.633,0.000,0
1639024121.143,-270.020,2.441,-30.762,1.465,0.000,0
1639024121.145,-1000.000,-510.742,-41.016,-126.953,0.000,0
1639024121.149,-373.047,-193.848,-50.781,-110.352,0.000,0
1639024121.153,922.363,365.234,-56.641,31.738,0.000,0
1639024121.157,-981.934,525.879,-31.738,103.516,0.000,0
1639024121.161,-97.656,90.820,-19.043,1.953,0.000,0
1639024121.165,-1000.000,-649.414,-46.387,-120.117,0.000,0
1639024121.168,-519.043,-761.719,-50.293,-97.168,0.000,0
1639024121.172,773.926,-584.961,-36.133,30.273,0.000,0
1639024121.176,-898.438,172.852,-44.922,78.613,0.000,0
1639024121.180,24.902,441.406,-46.875,-12.207,0.000,0
1639024121.184,-1000.000,-533.203,-38.086,-115.723,0.000,0
1639024121.187,-655.762,-768.066,-27.832,-97.656,0.000,0
1639024121.190,620.605,178.711,-38.574,31.738,0.000,0
1639024121.194,-849.609,789.062,-47.852,103.027,0.000,0
1639024121.198,125.000,215.820,-33.691,21.484,0.000,0
1639024121.202,-1000.000,-511.230,-36.621,-110.840,0.000,0
1639024121.205,-803.223,-502.441,-47.363,-126.953,0.000,0
1639024121.209,435.547,-77.637,-47.852,-15.137,0.000,0
1639024121.213,-828.613,-26.855,-44.434,89.844,0.000,0
1639024121.217,223.145,-400.879,-53.711,61.035,0.000,0
1639024121.221,-1000.000,-370.117,-45.410,-75.684,0.000,0
1639024121.224,-965.820,-459.473,-27.344,-115.234,0.000,0
1639024121.228,187.012,-185.059,-27.832,-26.855,0.000,0
1639024121.232,-823.730,511.719,-29.785,71.289,0.000,0
1639024121.236,343.262,636.230,-25.391,57.129,0.000,0
1639024121.239,-950.684,-190.918,-35.645,-66.406,0.000,0
1639024121.243,-1000.000,-781.250,-50.781,-111.816,0.000,0
1639024121.247,47.852,-198.242,-39.062,-11.719,0.000,0
1639024121.251,-843.262,592.773,-34.668,111.328,0.000,0
1639024121.255,475.586,356.445,-36.621,98.633,0.000,0
1639024121.258,-817.383,-668.945,-27.832,-27.344,0.000,0
1639024121.262,-1000.000,-997.070,-20.020,-117.188,0.000,0
1639024121.266,-72.754,-239.746,-30.273,-58.594,0.000,0
1639024121.270,-880.371,430.664,-35.156,85.938,0.000,0
1639024121.274,643.066,354.004,-32.715,94.727,0.000,0
1639024121.278,-624.512,-145.508,-46.875,-21.973,0.000,0
1639024121.280,-1000.000,-461.914,-40.039,-112.305,0.000,0
1639024121.284,-192.871,-360.840,-11.230,-55.664,0.000,0
1639024121.288,-920.898,239.258,-19.043,71.777,0.000,0
1639024121.292,752.930,673.340,-34.180,87.891,0.000,0
1639024121.295,-500.000,21.973,-27.832,-17.090,0.000,0
1639024121.299,-1000.000,-806.152,-30.273,-98.633,0.000,0
1639024121.303,-283.203,-769.043,-41.504,-52.734,0.000,0
1639024121.307,-999.512,106.445,-53.711,66.406,0.000,0
1639024121.311,919.922,654.297,-67.871,86.914,0.000,0
1639024121.314,-252.930,-284.668,-46.875,-25.879,0.000,0
1639024121.318,-1000.000,-984.375,-32.227,-120.605,0.000,0
1639024121.322,-396.484,-357.910,-40.527,-102.051,0.000,0
1639024121.326,895.996,339.844,-21.484,37.598,0.000,0
1639024121.329,-958.984,506.836,-4.883,116.211,0.000,0
1639024121.333,-62.500,105.957,-30.273,21.973,0.000,0
1639024121.337,-1000.000,-322.266,-72.266,-112.793,0.000,0
1639024121.341,-560.547,-414.551,-64.453,-118.164,0.000,0
1639024121.345,783.203,-139.160,-38.086,17.578,0.000,0
1639024121.348,-994.629,226.074,-38.574,72.754,0.000,0
1639024121.352,-144.043,-71.777,-36.133,-11.230,0.000,0
1639024121.356,-1000.000,-729.004,-37.109,-113.281,0.000,0
1639024121.360,-673.828,-846.680,-44.434,-91.797,0.000,0
1639024121.364,587.891,13.672,-56.641,20.508,0.000,0
1639024121.368,-844.238,748.047,-45.898,112.305,0.000,0
1639024121.371,138.672,252.441,-23.926,53.223,0.000,0
1639024121.375,-1000.000,-481.934,-30.273,-109.375,0.000,0
1639024121.379,-872.559,-370.605,-40.527,-139.160,0.000,0
1639024121.382,361.328,232.910,-39.551,-24.902,0.000,0
1639024121.386,-875.000,450.195,-39.062,81.055,0.000,0
1639024121.390,145.508,-12.207,-55.664,48.340,0.000,0
1639024121.394,-1000.000,-483.887,-72.754,-82.520,0.000,0
1639024121.398,-990.234,-423.828,-65.430,-147.461,0.000,0
1639024121.402,166.016,-477.051,-44.434,-34.180,0.000,0
1639024121.405,-870.605,-224.609,-43.457,71.777,0.000,0
1639024121.409,275.391,312.500,-35.156,37.598,0.000,0
1639024121.413,-933.594,-335.938,-24.414,-72.266,0.000,0
1639024121.416,-1000.000,-782.227,-34.180,-124.512,0.000,0
1639024121.420,10.742,-191.406,-53.223,-42.969,0.000,0
1639024121.424,-845.215,674.316,-59.082,63.477,0.000,0
1639024121.428,483.398,557.617,-31.250,64.941,0.000,0
1639024121.432,-805.176,-297.852,-30.762,-57.129,0.000,0
1639024121.436,-1000.000,-822.266,-57.129,-149.902,0.000,0
1639024121.439,-107.910,-500.488,-44.922,-54.688,0.000,0
1639024121.443,-888.672,150.391,-38.086,102.539,0.000,0
1639024121.447,658.203,-129.883,-63.965,107.422,0.000,0
1639024121.451,-600.098,-404.785,-62.012,-27.832,0.000,0
1639024121.455,-1000.000,-366.211,-50.293,-147.461,0.000,0
1639024121.458,-221.191,-351.074,-45.898,-113.770,0.000,0
1639024121.462,-943.359,268.555,-39.062,16.602,0.000,0
1639024121.466,798.340,673.828,-40.039,56.152,0.000,0
1639024121.469,-438.965,-61.035,-40.039,-37.598,0.000,0
1639024121.473,-1000.000,-824.707,-46.875,-125.000,0.000,0
1639024121.477,-289.551,-489.258,-36.621,-69.336,0.000,0
1639024121.481,972.656,228.516,-37.598,45.410,0.000,0
1639024121.485,903.809,370.605,-46.875,81.543,0.000,0
1639024121.489,-225.586,-344.727,-41.504,-18.555,0.000,0
1639024121.492,-1000.000,-944.336,-34.668,-139.648,0.000,0
1639024121.496,-414.551,-372.070,-42.480,-111.816,0.000,0
1639024121.500,880.859,343.262,-60.059,5.371,0.000,0
1639024121.504,-950.195,500.977,-41.992,91.797,0.000,0
1639024121.507,-50.781,167.969,-28.320,11.230,0.000,0
1639024121.511,-1000.000,-287.109,-42.969,-126.465,0.000,0
1639024121.515,-566.895,-424.316,-56.641,-112.793,0.000,0
1639024121.519,720.703,42.480,-61.035,15.625,0.000,0
1639024121.522,-876.953,535.156,-38.086,91.309,0.000,0
1639024121.526,64.453,128.418,-21.973,17.578,0.000,0
1639024121.530,-1000.000,-678.223,-39.062,-119.141,0.000,0
1639024121.534,-719.238,-1000.000,-33.691,-117.188,0.000,0
1639024121.538,548.340,-280.762,-32.715,9.766,0.000,0
1639024121.542,-836.914,722.656,-56.152,75.195,0.000,0
1639024121.545,152.832,353.027,-56.641,21.484,0.000,0
1639024121.549,-1000.000,-484.863,-38.086,-108.398,0.000,0
1639024121.553,-867.188,-442.871,-41.504,-148.926,0.000,0
1639024121.556,345.215,171.387,-61.035,-18.555,0.000,0
1639024121.560,-818.848,440.918,-55.664,94.238,0.000,0
1639024121.564,253.906,273.438,-48.340,45.410,0.000,0
1639024121.568,-1000.000,-193.848,-41.992,-95.703,0.000,0
1639024121.572,-999.512,-653.809,-31.250,-155.273,0.000,0
1639024121.575,133.301,-739.258,-27.832,-31.250,0.000,0
1639024121.579,-827.637,-351.562,-22.461,110.840,0.000,0
1639024121.583,380.371,258.789,-26.367,78.125,0.000,0
1639024121.587,-914.551,-119.629,-39.551,-71.289,0.000,0
1639024121.591,-1000.000,-681.641,-56.641,-134.766,0.000,0
1639024121.595,-6.348,-239.746,-57.129,-52.734,0.000,0
1639024121.598,-850.586,550.781,-35.645,71.777,0.000,0
1639024121.602,509.766,514.648,-39.551,57.617,0.000,0
1639024121.605,-778.809,-243.164,-46.875,-85.938,0.000,0
1639024121.609,-1000.000,-586.426,-55.176,-157.227,0.000,0
1639024121.613,-117.676,-157.227,-58.105,-67.383,0.000,0
1639024121.617,-892.578,277.832,-37.598,63.965,0.000,0
1639024121.621,670.410,-196.289,-22.949,85.938,0.000,0
1639024121.624,-585.938,-670.410,-30.762,-29.297,0.000,0
1639024121.628,-1000.000,-519.531,-44.922,-136.230,0.000,0
1639024121.632,-226.074,-310.059,-64.453,-90.820,0.000,0
1639024121.636,-953.125,197.754,-58.594,39.062,0.000,0
1639024121.640,828.613,474.121,-36.133,77.148,0.000,0
1639024121.643,-388.672,119.629,-37.109,-28.809,0.000,0
1639024121.647,-1000.000,-601.074,-32.227,-132.812,0.000,0
1639024121.651,-329.102,-575.195,-32.715,-98.145,0.000,0
1639024121.654,970.703,302.246,-47.363,20.020,0.000,0
1639024121.658,947.754,681.641,-55.664,82.520,0.000,0
1639024121.662,-220.703,-209.961,-59.082,-1.465,0.000,0
1639024121.666,-1000.000,-1000.000,-36.133,-118.652,0.000,0
1639024121.670,-458.984,-479.980,-27.832,-116.211,0.000,0
1639024121.674,837.891,293.457,-42.480,-2.441,0.000,0
1639024121.677,-936.035,286.621,-32.227,69.824,0.000,0
1639024121.681,-44.434,-177.246,-25.879,2.441,0.000,0
1639024121.685,-1000.000,-470.703,-47.852,-118.164,0.000,0
1639024121.689,-629.883,-462.891,-44.922,-147.949,0.000,0
1639024121.693,648.926,-41.016,-37.109,-25.879,0.000,0
1639024121.697,-864.746,324.707,-46.387,83.008,0.000,0
1639024121.700,62.500,245.117,-41.504,30.273,0.000,0
1639024121.704,-1000.000,-405.762,-37.598,-117.188,0.000,0
1639024121.708,-761.719,-821.777,-48.828,-151.367,0.000,0
1639024121.712,484.375,-326.172,-52.246,-9.277,0.000,0
1639024121.716,-830.078,303.711,-34.180,90.820,0.000,1
1639024121.720,167.480,49.805,-25.879,55.176,0.000,0
1639024121.723,-1000.000,-764.648,-33.691,-90.820,0.000,0
1639024121.727,-898.438,-683.594,-38.086,-171.387,0.000,0
1639024121.731,291.504,106.445,-42.480,-54.688,0.000,0
1639024121.735,-819.824,420.898,-59.570,62.500,0.000,0
1639024121.739,279.785,218.262,-59.082,16.602,0.000,0
1639024121.743,-1000.000,-172.363,-35.156,-95.215,0.000,0
1639024121.746,-1000.000,-409.180,-42.969,-121.582,0.000,0
1639024121.750,129.395,-218.750,-48.340,-23.926,0.000,0
1639024121.754,-832.520,150.879,-22.461,112.793,0.000,0
1639024121.758,410.645,165.527,-21.973,99.609,0.000,0
1639024121.762,-880.859,-350.586,-48.828,-63.477,0.000,0
1639024121.765,-1000.000,-914.551,-34.180,-142.090,0.000,0
1639024121.769,-28.320,-636.719,-23.438,-61.035,0.000,0
1639024121.773,-858.887,535.645,-30.273,48.340,0.000,0
1639024121.777,550.293,673.828,-31.738,72.266,0.000,0
1639024121.781,-734.375,-155.762,-50.781,-69.824,0.000,0
1639024121.785,-1000.000,-509.766,-55.176,-173.828,0.000,0
1639024121.788,-130.859,-107.422,-36.133,-79.590,0.000,0
1639024121.792,-900.391,444.336,-15.137,63.965,0.000,0
1639024121.796,705.078,409.180,-20.020,86.426,0.000,0
1639024121.800,-552.734,-286.133,-44.922,-21.973,0.000,0
1639024121.804,-1000.000,-832.520,-60.547,-138.184,0.000,0
1639024121.808,-229.980,-687.012,-44.434,-87.402,0.000,0
1639024121.811,-961.426,-368.164,-23.438,61.523,0.000,0
1639024121.815,853.027,250.488,-61.523,74.707,0.000,0
1639024121.819,-349.121,332.031,-75.684,-38.574,0.000,0
1639024121.823,-1000.000,-498.535,-31.738,-133.301,0.000,0
1639024121.827,-332.520,-542.969,-15.137,-100.586,0.000,0
1639024121.830,962.891,378.906,-20.020,51.270,0.000,0
1639024121.834,969.238,752.930,-26.367,99.609,0.000,0
1639024121.838,-178.711,66.406,-37.598,-18.066,0.000,0
1639024121.842,-1000.000,-619.629,-35.645,-122.559,0.000,0
1639024121.846,-468.750,-636.230,-28.320,-96.680,0.000,0
1639024121.850,832.031,21.973,-38.086,23.438,0.000,0
1639024121.853,-935.059,72.266,-53.711,97.656,0.000,0
1639024121.857,-42.480,-514.648,-49.805,16.113,0.000,0
1639024121.861,-1000.000,-418.945,-34.668,-130.371,0.000,0
1639024121.865,-620.117,-356.445,-38.574,-109.375,0.000,0
1639024121.869,656.250,-33.691,-49.805,10.254,0.000,0
1639024121.873,-863.281,550.781,-51.758,72.754,0.000,0
1639024121.877,79.102,455.078,-60.547,-3.906,0.000,0
1639024121.881,-1000.000,-330.078,-56.152,-115.234,0.000,0
1639024121.885,-767.578,-655.762,-30.762,-104.492,0.000,0
1639024121.888,479.004,32.227,-29.785,-4.395,0.000,0
1639024121.892,-829.102,504.395,-39.551,97.168,0.000,0
1639024121.896,178.223,50.293,-47.363,46.875,0.000,0
1639024121.900,-1000.000,-771.973,-33.691,-94.238,0.000,0
1639024121.904,-907.715,-794.434,-36.621,-138.672,0.000,0
1639024121.907,278.320,80.566,-58.594,-43.945,0.000,0
1639024121.911,-820.312,494.629,-62.012,87.891,0.000,0
1639024121.915,301.758,208.496,-41.504,74.219,0.000,0
1639024121.919,-986.328,-184.570,-26.367,-67.871,0.000,0
1639024121.923,-1000.000,-473.633,-20.996,-139.160,0.000,0
1639024121.927,100.098,-373.535,-24.414,-42.969,0.000,0
1639024121.930,-835.449,289.062,-31.738,77.148,0.000,0
1639024121.934,427.246,560.547,-48.828,52.734,0.000,0
1639024121.938,-869.629,-289.551,-77.637,-61.035,0.000,0
1639024121.942,-1000.000,-913.574,-77.637,-128.418,0.000,0
1639024121.946,-25.391,-325.195,-43.945,-75.195,0.000,0
1639024121.949,-866.699,551.758,-21.484,36.133,0.000,0
1639024121.953,585.938,617.188,-25.391,64.941,0.000,0
1639024121.957,-692.871,-386.230,-24.414,-30.762,0.000,0
1639024121.961,-1000.000,-977.051,-23.926,-113.770,0.000,0
1639024121.965,-134.766,-262.695,-41.992,-59.082,0.000,0
1639024121.968,-907.715,455.566,-52.734,72.266,0.000,0
1639024121.972,733.887,438.477,-57.617,98.633,0.000,0
1639024121.976,-512.695,-55.176,-58.105,-45.410,0.000,0
1639024121.980,-1000.000,-506.348,-38.086,-159.668,0.000,0
1639024121.984,-247.070,-527.344,-40.527,-104.492,0.000,0
1639024121.987,-973.145,-423.828,-44.922,38.086,0.000,0
1639024121.991,874.512,-144.043,-35.156,103.516,0.000,0
1639024121.995,-318.359,-45.410,-27.344,2.441,0.000,0
1639024121.999,-1000.000,-640.625,-39.062,-120.605,0.000,0
1639024122.003,-338.867,-588.379,-52.246,-93.262,0.000,0
1639024122.007,953.613,366.211,-41.016,21.484,0.000,0
1639024122.010,987.793,823.730,-40.039,59.570,0.000,0
1639024122.014,-146.973,138.184,-41.504,-42.969,0.000,0
1639024122.018,-1000.000,-641.113,-28.320,-156.250,0.000,0
1639024122.022,-474.121,-392.578,-18.066,-120.605,0.000,0
1639024122.025,825.195,417.480,-30.273,28.320,0.000,0
1639024122.029,-927.246,221.680,-63.477,104.492,0.000,0
1639024122.033,-24.414,-463.379,-70.312,11.719,0.000,0
1639024122.037,-1000.000,-460.938,-35.645,-124.512,0.000,0
1639024122.041,-649.414,-585.938,-28.320,-129.395,0.000,0
1639024122.045,625.977,-208.984,-36.621,3.906,0.000,0
1639024122.048,-855.469,475.098,-48.828,76.172,0.000,0
1639024122.052,93.750,461.914,-38.086,3.906,0.000,0
1639024122.057,-1000.000,-277.832,-14.160,-76.660,0.000,0
1639024122.060,-786.621,-630.371,-16.113,-88.867,0.000,0
1639024122.064,453.613,6.348,-63.965,-7.812,0.000,0
1639024122.068,-827.148,699.707,-102.539,62.500,0.000,0
1639024122.072,179.688,405.273,-69.824,1.953,0.000,0
1639024122.076,-1000.000,-634.766,-12.695,-120.605,0.000,0
1639024122.079,-938.477,-960.938,-8.301,-155.762,0.000,0
1639024122.083,224.121,-309.570,-22.949,-33.691,0.000,0
1639024122.087,-819.824,221.680,-24.902,111.328,0.000,0
1639024122.091,296.387,-112.793,-36.133,89.844,0.000,0
1639024122.095,-982.910,-524.902,-45.410,-32.227,0.000,0
1639024122.099,-1000.000,-736.328,-41.992,-99.121,0.000,0
1639024122.103,64.941,-483.887,-37.598,-48.828,0.000,0
1639024122.107,-835.449,312.012,-44.922,39.551,0.000,0
1639024122.110,427.246,583.008,-36.621,42.480,0.000,0
1639024122.114,-865.234,-10.254,-20.508,-71.289,0.000,0
1639024122.118,-1000.000,-680.664,-20.020,-131.836,0.000,0
1639024122.122,-54.688,-594.238,-39.551,-42.480,0.000,0
1639024122.126,-866.211,193.848,-63.965,61.035,0.000,0
1639024122.130,578.125,564.941,-49.316,57.617,0.000,0
1639024122.133,-699.707,-341.309,-34.180,-47.852,0.000,0
1639024122.137,-1000.000,-965.820,-46.875,-129.395,0.000,0
1639024122.141,-164.062,-246.094,-25.879,-74.707,0.000,0
1639024122.145,-916.016,426.270,-26.367,48.340,0.000,0
1639024122.149,743.164,400.391,-50.293,72.266,0.000,0
1639024122.153,-499.023,-83.984,-38.574,-51.270,0.000,0
1639024122.157,-1000.000,-660.156,-34.180,-141.113,0.000,0
1639024122.160,-270.508,-641.113,-48.340,-96.191,0.000,0
1639024122.164,-994.629,73.730,-52.246,28.320,0.000,0
1639024122.168,860.840,334.961,-41.016,91.309,0.000,0
1639024122.172,-316.406,-235.352,-45.898,-20.508,0.000,0
1639024122.176,-1000.000,-836.426,-41.016,-134.766,0.000,0
1639024122.180,-383.301,-931.641,-41.016,-108.398,0.000,0
1639024122.183,922.852,-42.480,-37.109,26.367,0.000,0
1639024122.187,-999.023,791.016,-41.992,94.238,0.000,0
1639024122.191,-138.672,136.719,-68.359,-8.789,0.000,0
1639024122.195,-1000.000,-658.203,-59.082,-127.930,0.000,0
1639024122.199,-501.465,-359.863,-47.852,-118.164,0.000,0
1639024122.203,791.504,347.168,-44.434,8.789,0.000,0
1639024122.207,-904.785,520.508,-25.391,98.633,0.000,0
1639024122.210,12.695,31.250,-34.180,38.086,0.000,0
1639024122.214,-1000.000,-641.113,-54.199,-83.496,0.000,0
1639024122.218,-671.387,-725.098,-48.340,-115.723,0.000,0
1639024122.222,598.633,-495.605,-47.363,-4.883,0.000,0
1639024122.226,-847.656,-177.734,-51.270,88.379,0.000,0
1639024122.229,117.676,226.562,-39.062,38.086,0.000,0
1639024122.233,-1000.000,-276.367,-18.555,-71.289,0.000,0
1639024122.237,-803.223,-622.559,-22.949,-103.516,0.000,0
1639024122.241,433.594,-7.324,-44.434,3.906,0.000,0
1639024122.245,-826.660,712.891,-48.340,92.285,0.000,0
1639024122.249,206.543,387.695,-38.086,39.551,0.000,0
1639024122.253,-1000.000,-497.070,-32.715,-92.773,0.000,0
1639024122.257,-898.926,-661.133,-36.621,-127.441,0.000,0
1639024122.260,293.457,-226.562,-17.578,8.301,0.000,0
1639024122.264,-828.613,227.539,-10.742,129.395,0.000,0
1639024122.268,304.199,-292.480,-52.246,66.406,0.000,0
1639024122.272,-974.609,-893.555,-55.664,-102.539,0.000,0
1639024122.276,-1000.000,-601.562,-48.340,-150.391,0.000,0
1639024122.279,54.688,-190.918,-58.594,-54.688,0.000,0
1639024122.283,-839.355,327.148,-50.293,50.293,0.000,0
1639024122.287,450.195,523.438,-26.855,58.105,0.000,0
1639024122.291,-844.727,-42.480,-18.555,-53.223,0.000,0
1639024122.295,-1000.000,-650.391,-20.020,-129.883,0.000,0
1639024122.299,-61.523,-376.465,-24.414,-48.340,0.000,0
1639024122.303,-867.676,510.254,-41.992,81.543,0.000,0
1639024122.306,582.520,406.250,-45.410,83.984,0.000,0
1639024122.310,-692.383,-544.434,-35.156,-38.086,0.000,0
1639024122.314,-1000.000,-915.039,-32.715,-125.977,0.000,0
1639024122.318,-174.316,-208.984,-48.340,-67.871,0.000,0
1639024122.322,-920.898,499.023,-41.016,77.148,0.000,0
1639024122.325,755.859,458.984,-30.273,102.539,0.000,0
1639024122.329,-487.305,-226.562,-30.762,-22.461,0.000,0
1639024122.333,-1000.000,-595.703,-34.668,-123.535,0.000,0
1639024122.337,-284.180,-324.219,-53.223,-90.332,0.000,0
1639024122.341,-988.770,165.527,-53.223,27.832,0.000,0
1639024122.345,883.301,521.973,-25.391,69.824,0.000,0
1639024122.349,-315.430,152.832,-39.551,-35.645,0.000,0
1639024122.352,-1000.000,-631.836,-45.410,-138.184,0.000,0
1639024122.356,-424.805,-998.535,-28.320,-96.680,0.000,0
1639024122.360,888.672,-245.605,-42.969,15.137,0.000,0
1639024122.364,-991.699,587.891,-33.203,68.848,0.000,0
1639024122.368,-145.508,71.289,-29.785,-10.742,0.000,0
1639024122.371,-1000.000,-673.340,-62.500,-128.418,0.000,0
1639024122.375,-549.805,-447.754,-68.359,-129.883,0.000,0
1639024122.379,740.723,296.875,-62.500,-1.465,0.000,0
1639024122.383,-897.461,469.727,-52.734,90.332,0.000,0
1639024122.387,4.395,-116.699,-39.551,7.812,0.000,0
1639024122.391,-1000.000,-526.367,-29.785,-115.723,0.000,0
1639024122.394,-697.266,-374.023,-21.484,-110.840,0.000,0
1639024122.398,561.523,-349.609,-20.020,13.672,0.000,0
1639024122.402,-843.262,-160.156,-25.391,103.027,0.000,0
1639024122.406,127.930,240.723,-44.434,14.160,0.000,0
1639024122.410,-1000.000,-236.816,-61.035,-103.027,0.000,0
1639024122.414,-813.477,-677.246,-64.453,-119.629,0.000,0
1639024122.417,419.922,-94.238,-50.293,-18.555,0.000,0
1639024122.421,-823.730,670.898,-46.387,97.656,0.000,0
1639024122.426,236.328,422.363,-36.621,69.336,0.000,0
1639024122.429,-1000.000,-393.066,-14.648,-62.012,0.000,0
1639024122.433,-963.379,-590.332,-26.367,-130.859,0.000,0
1639024122.437,225.586,81.055,-47.852,-59.082,0.000,0
1639024122.441,-871.582,524.902,-41.016,62.500,0.000,0
1639024122.445,261.719,39.062,-31.250,40.039,0.000,0
1639024122.449,-943.848,-598.633,-34.668,-59.570,0.000,0
1639024122.452,-1000.000,-837.891,-42.969,-102.051,0.000,0
1639024122.456,45.898,-467.773,-43.945,-38.574,0.000,0
1639024122.460,-844.727,-39.551,-28.809,90.820,0.000,0
1639024122.464,478.027,258.301,-11.719,74.707,0.000,0
1639024122.468,-811.523,47.852,-36.621,-89.844,0.000,0
1639024122.472,-1000.000,-616.699,-53.223,-163.574,0.000,0
1639024122.476,-84.961,-337.891,-52.246,-73.242,0.000,0
1639024122.480,-876.465,535.645,-58.105,55.176,0.000,0
1639024122.484,615.723,678.711,-49.316,65.918,0.000,0
1639024122.487,-654.785,-120.117,-33.203,-38.574,0.000,0
1639024122.491,-1000.000,-932.129,-38.574,-105.469,0.000,1
1639024122.495,-198.242,-523.438,-52.734,-58.105,0.000,0
1639024122.499,-923.340,496.094,-42.969,59.082,0.000,0
1639024122.503,743.652,82.520,-41.504,101.074,0.000,0
1639024122.506,-506.836,-772.949,-49.316,-11.719,0.000,0
1639024122.510,-1000.000,-602.051,-53.223,-149.414,0.000,0
1639024122.514,-292.480,-481.934,-43.945,-93.750,0.000,0
1639024122.518,998.535,47.363,-49.805,55.176,0.000,0
1639024122.522,912.109,531.738,-43.457,97.656,0.000,0
1639024122.526,-269.043,261.230,-35.156,-12.695,0.000,0
1639024122.530,-1000.000,-454.590,-46.387,-120.117,0.000,0
1639024122.534,-400.391,-581.055,-36.621,-79.590,0.000,0
1639024122.538,898.926,5.371,-31.250,34.668,0.000,0
1639024122.541,-974.609,342.285,-50.781,88.867,0.000,0
1639024122.545,-96.680,-128.906,-47.363,10.254,0.000,0
1639024122.549,-1000.000,-868.652,-35.645,-111.328,0.000,0
1639024122.553,-537.109,-566.406,-48.828,-120.117,0.000,0
1639024122.557,755.371,336.426,-50.781,-9.766,0.000,0
1639024122.560,-897.949,472.656,-46.875,59.082,0.000,0
1639024122.565,19.043,31.250,-34.180,-17.578,0.000,0
1639024122.569,-1000.000,-288.086,-20.020,-126.465,0.000,0
1639024122.572,-691.895,-315.918,-20.996,-105.957,0.000,0
1639024122.576,572.754,-20.996,-42.480,30.273,0.000,0
1639024122.580,-843.262,398.438,-48.340,112.793,0.000,0
1639024122.584,127.441,208.984,-32.227,44.922,0.000,0
1639024122.588,-1000.000,-564.941,-39.551,-97.656,0.000,0
1639024122.592,-864.258,-970.215,-56.152,-123.047,0.000,0
1639024122.595,350.098,-416.016,-59.570,-12.207,0.000,0
1639024122.599,-816.895,584.473,-42.480,72.266,0.000,0
1639024122.603,229.492,532.227,-25.879,31.250,0.000,0
1639024122.607,-1000.000,-494.629,-17.090,-82.031,0.000,0
1639024122.611,-967.285,-813.965,-30.762,-112.793,0.000,0
1639024122.615,186.035,78.125,-58.105,-10.254,0.000,0
1639024122.619,-825.195,490.234,-59.082,94.238,0.000,0
1639024122.623,347.168,243.164,-48.828,49.805,0.000,0
1639024122.626,-939.453,-216.309,-38.574,-96.680,0.000,0
1639024122.630,-1000.000,-685.059,-32.715,-145.020,0.000,0
1639024122.634,16.113,-473.633,-20.020,-34.180,0.000,0
1639024122.638,-847.656,-293.945,-25.879,95.215,0.000,0
1639024122.642,492.188,-5.859,-26.855,104.004,0.000,0
1639024122.645,-794.434,55.176,-24.902,-35.645,0.000,0
1639024122.649,-1000.000,-571.777,-43.457,-127.441,0.000,0
1639024122.653,-105.957,-429.688,-44.434,-57.617,0.000,0
1639024122.657,-885.254,462.402,-56.641,53.223,0.000,0
1639024122.661,649.902,729.492,-62.500,74.219,0.000,0
1639024122.665,-617.188,-87.891,-47.363,-15.137,0.000,0
1639024122.669,-1000.000,-672.363,-46.875,-111.328,0.000,0
1639024122.673,-199.707,-275.879,-45.898,-73.242,0.000,0
1639024122.676,-928.711,300.781,-40.039,59.570,0.000,0
1639024122.680,765.137,14.160,-26.855,74.219,0.000,0
1639024122.684,-479.980,-721.191,-29.785,-66.406,0.000,0
1639024122.688,-1000.000,-567.383,-45.898,-171.387,0.000,0
1639024122.692,-288.574,-275.879,-35.645,-79.102,0.000,0
1639024122.696,997.559,127.930,-55.176,72.754,0.000,0
1639024122.699,922.363,485.840,-78.125,72.266,0.000,0
1639024122.703,-249.512,221.680,-51.758,-35.645,0.000,0
1639024122.707,-1000.000,-389.160,-32.715,-123.047,0.000,0
1639024122.711,-417.969,-562.500,-24.902,-72.266,0.000,0
1639024122.715,885.254,142.090,-52.246,54.688,0.000,0
1639024122.719,-970.215,729.004,-62.012,114.258,0.000,0
1639024122.723,-96.680,80.078,-31.738,8.301,0.000,0
1639024122.726,-1000.000,-866.211,-30.273,-111.328,0.000,0
1639024122.730,-571.289,-887.695,-36.621,-95.215,0.000,0
1639024122.734,717.773,-100.098,-40.527,9.766,0.000,0
1639024122.738,-887.207,285.156,-30.273,92.773,0.000,0
1639024122.742,31.738,-30.273,-25.879,45.898,0.000,0
1639024122.746,-1000.000,-329.102,-41.992,-66.895,0.000,0
1639024122.750,-724.609,-347.168,-54.199,-109.375,0.000,0
1639024122.753,532.715,-38.574,-47.852,-7.812,0.000,0
1639024122.757,-836.914,416.504,-42.480,89.844,0.000,0
1639024122.761,139.648,422.852,-42.969,34.668,0.000,0
1639024122.765,-1000.000,-192.871,-31.738,-86.914,0.000,0
1639024122.769,-888.672,-858.398,-27.344,-123.047,0.000,0
1639024122.773,308.105,-541.016,-33.203,-14.648,0.000,0
1639024122.776,-816.895,552.734,-37.109,76.660,0.000,0
1639024122.780,243.164,509.766,-35.156,31.250,0.000,0
1639024122.784,-1000.000,-516.113,-21.973,-68.359,0.000,0
1639024122.788,-982.422,-776.855,-39.551,-122.559,0.000,0
1639024122.792,163.086,-139.648,-27.832,-32.227,0.000,0
1639024122.796,-825.684,272.949,-3.906,109.863,0.000,0
1639024122.800,360.352,219.727,-37.109,68.848,0.000,0
1639024122.804,-930.176,-302.734,-53.223,-78.613,0.000,0
1639024122.808,-1000.000,-476.074,-44.922,-142.090,0.000,0
1639024122.812,13.672,-117.188,-49.805,-38.086,0.000,0
1639024122.815,-851.074,162.109,-43.457,99.121,0.000,0
1639024122.819,507.812,86.426,-46.387,78.125,0.000,0
1639024122.823,-773.926,-304.199,-64.941,-55.176,0.000,0
1639024122.827,-1000.000,-676.270,-47.363,-141.113,0.000,0
1639024122.831,-125.977,-702.637,-24.902,-80.566,0.000,0
1639024122.834,-892.090,217.773,-30.762,43.457,0.000,0
1639024122.838,667.480,711.426,-36.133,72.754,0.000,0
1639024122.843,-598.145,-115.723,-24.414,-37.109,0.000,0
1639024122.847,-1000.000,-691.895,-36.621,-108.887,0.000,0
1639024122.850,-201.660,-345.703,-56.152,-35.645,0.000,0
1639024122.854,-941.406,327.637,-47.363,89.844,0.000,0
1639024122.858,806.641,444.824,-43.945,97.656,0.000,0
1639024122.862,-414.062,-316.406,-41.016,-20.508,0.000,0
1639024122.866,-1000.000,-744.141,-23.926,-121.094,0.000,0
1639024122.870,-305.664,-256.348,-39.062,-108.887,0.000,0
1639024122.873,979.004,-75.684,-55.664,29.297,0.000,0
1639024122.877,955.078,-147.949,-45.898,139.648,0.000,0
1639024122.881,-193.359,148.926,-36.133,19.043,0.000,0
1639024122.885,-1000.000,-346.191,-6.836,-144.531,0.000,0
1639024122.889,-413.574,-563.965,-26.367,-120.605,0.000,0
1639024122.893,880.371,206.543,-60.547,15.137,0.000,0
1639024122.897,-938.965,729.492,-40.527,90.332,0.000,0
1639024122.901,-68.359,205.566,-35.645,-8.789,0.000,0
1639024122.905,-1000.000,-643.066,-45.410,-138.184,0.000,0
1639024122.908,-441.406,-794.922,-45.898,-113.281,0.000,0
1639024122.912,718.750,-167.969,-52.734,2.930,0.000,0
1639024122.916,-880.859,269.043,-50.781,82.031,0.000,0
1639024122.920,63.477,-414.551,-33.691,25.879,0.000,0
1639024122.924,-1000.000,-750.000,-29.297,-110.352,0.000,0
1639024122.928,-707.520,-401.367,-40.527,-131.348,0.000,0
1639024122.931,550.293,-94.238,-57.129,-28.809,0.000,0
1639024122.936,-838.379,453.613,-61.523,65.918,0.000,0
1639024122.940,172.852,514.160,-52.734,40.527,0.000,0
1639024122.944,-1000.000,-131.348,-43.945,-86.426,0.000,0
1639024122.947,-873.047,-623.047,-23.926,-119.629,0.000,0
1639024122.951,341.797,-163.574,-20.996,-9.766,0.000,0
1639024122.955,-819.824,456.543,-33.203,104.980,0.000,0
1639024122.959,259.277,155.273,-51.270,66.406,0.000,0
1639024122.963,-1000.000,-606.934,-50.781,-75.684,0.000,0
1639024122.966,-981.445,-953.613,-54.199,-122.070,0.000,0
1639024122.970,155.273,-243.652,-58.105,-28.809,0.000,0
1639024122.974,-829.590,615.723,-29.785,71.289,0.000,0
1639024122.978,386.719,437.500,-13.672,50.293,0.000,0
1639024122.982,-906.250,-234.863,-23.438,-57.617,0.000,0
1639024122.986,-1000.000,-458.496,-43.457,-131.348,0.000,0
1639024122.990,0.000,-112.793,-61.035,-47.363,0.000,0
1639024122.994,-853.027,376.465,-70.312,78.125,0.000,0
1639024122.998,520.996,497.070,-49.316,55.176,0.000,0
1639024123.001,-763.672,-238.281,-36.133,-55.176,0.000,0
1639024123.005,-1000.000,-901.855,-34.668,-103.516,0.000,0
1639024123.009,-125.977,-882.324,-23.438,-36.621,0.000,0
1639024123.013,-895.020,-7.324,-27.832,88.867,0.000,0
1639024123.017,679.688,666.504,-61.035,91.797,0.000,0
1639024123.021,-582.031,-29.785,-74.707,-76.660,0.000,0
1639024123.024,-1000.000,-863.770,-41.504,-146.484,0.000,0
1639024123.029,-224.609,-538.086,-38.086,-79.102,0.000,0
1639024123.033,-954.102,426.270,-39.062,16.113,0.000,0
1639024123.036,828.613,469.727,-29.785,67.383,0.000,0
1639024123.040,-406.738,-103.027,-32.715,-4.395,0.000,0
1639024123.044,-1000.000,-473.145,-40.527,-115.234,0.000,0
1639024123.048,-240.723,-451.660,-46.875,-109.863,0.000,0
1639024123.052,953.125,-272.949,-42.969,40.039,0.000,0
1639024123.055,975.586,-149.902,-37.598,128.906,0.000,0
1639024123.059,-155.273,83.008,-52.734,17.090,0.000,0
1639024123.063,-1000.000,-360.352,-57.617,-117.676,0.000,0
1639024123.067,-415.527,-514.648,-36.133,-95.703,0.000,0
1639024123.071,877.441,215.820,-24.414,26.855,0.000,0
1639024123.075,-935.547,782.227,-17.090,88.379,0.000,0
1639024123.079,-11.230,351.562,-20.020,12.207,0.000,0
1639024123.083,-1000.000,-603.516,-40.039,-119.141,0.000,0
1639024123.086,-557.617,-672.852,-49.316,-130.371,0.000,0
1639024123.090,731.445,207.031,-50.293,-6.836,0.000,0
1639024123.094,-876.465,496.094,-36.133,78.613,0.000,0
1639024123.098,77.148,-395.996,-34.180,32.227,0.000,0
1639024123.102,-1000.000,-958.984,-57.617,-100.586,0.000,0
1639024123.106,-707.520,-463.867,-46.387,-123.535,0.000,0
1639024123.109,554.688,19.531,-22.461,-2.441,0.000,0
1639024123.113,-837.891,416.992,-30.273,71.289,0.000,0
1639024123.117,185.059,427.734,-35.645,23.438,0.000,0
1639024123.121,-1000.000,-188.477,-37.598,-113.770,0.000,0
1639024123.125,-886.719,-649.414,-51.758,-138.672,0.000,0
1639024123.129,322.754,-212.891,-50.781,-24.902,0.000,0
1639024123.133,-820.801,621.582,-40.039,72.754,0.000,0
1639024123.137,282.227,519.531,-55.176,42.480,0.000,0
1639024123.140,-1000.000,-480.957,-48.340,-66.895,0.000,0
1639024123.144,-1000.000,-1000.000,-30.273,-110.840,0.000,0
1639024123.148,142.090,-419.434,-30.762,-40.039,0.000,0
1639024123.152,-831.543,465.820,-20.508,84.473,0.000,0
1639024123.156,391.602,202.637,-18.066,75.684,0.000,0
1639024123.160,-899.414,-519.043,-31.738,-73.730,0.000,0
1639024123.163,-1000.000,-451.172,-47.363,-152.344,0.000,0
1639024123.168,-1.465,-81.543,-49.805,-62.988,0.000,0
1639024123.172,-862.793,378.418,-41.504,90.332,0.000,0
1639024123.176,564.941,517.578,-41.992,104.004,0.000,0
1639024123.179,-710.938,33.691,-20.508,-12.207,0.000,0
1639024123.183,-1000.000,-499.023,-27.344,-124.512,0.000,0
1639024123.187,-133.789,-543.945,-60.059,-101.562,0.000,0
1639024123.191,-905.762,-26.855,-49.805,40.039,0.000,0
1639024123.195,717.285,333.984,-26.367,81.055,0.000,0
1639024123.199,-532.715,-187.500,-42.480,-24.414,0.000,0
1639024123.202,-1000.000,-888.184,-72.266,-119.141,0.000,0
1639024123.206,-217.773,-435.547,-54.688,-90.820,0.000,0
1639024123.210,-953.125,491.699,-23.438,28.809,0.000,0
1639024123.215,838.379,488.770,-26.367,71.289,0.000,0
1639024123.218,-365.723,-146.484,-34.668,-31.250,0.000,0
1639024123.222,-1000.000,-460.449,-41.016,-135.742,0.000,0
1639024123.226,-311.035,-257.812,-43.945,-102.539,0.000,0
1639024123.230,968.262,160.156,-36.621,54.688,0.000,0
1639024123.234,981.445,187.500,-45.898,115.723,0.000,0
1639024123.238,-143.555,-100.586,-49.316,20.020,0.000,0
1639024123.241,-1000.000,-320.801,-47.363,-100.586,0.000,0
1639024123.245,-460.449,-778.809,-41.992,-109.863,0.000,0
1639024123.249,833.984,-527.344,-33.203,-5.371,0.000,0
1639024123.253,-923.340,545.410,-35.156,50.293,0.000,0
1639024123.257,-3.906,254.883,-26.855,-2.930,0.000,0
1639024123.261,-1000.000,-593.750,-24.414,-102.051,0.000,0
1639024123.265,-571.777,-522.949,-39.551,-114.258,0.000,0
1639024123.269,714.844,252.441,-59.570,8.301,0.000,0
1639024123.273,-870.117,594.727,-60.059,107.422,0.000,0
1639024123.277,99.609,93.262,-43.457,58.594,0.000,0
1639024123.280,-1000.000,-635.742,-40.039,-102.539,0.000,0
1639024123.284,-744.141,-790.527,-42.969,-157.227,0.000,0
1639024123.288,512.695,-245.117,-27.832,-42.969,0.000,0
1639024123.292,-832.520,-11.719,-22.461,73.730,0.000,0
1639024123.296,199.219,40.527,-27.344,45.898,0.000,0
1639024123.300,-1000.000,-74.219,-32.715,-71.289,0.000,0
1639024123.303,-894.531,-586.426,-42.480,-113.281,0.000,0
1639024123.308,303.711,-438.477,-45.410,-19.531,0.000,0
1639024123.312,-824.707,536.133,-32.715,90.332,0.000,0
1639024123.315,310.547,558.594,-43.457,59.570,0.000,0
1639024123.319,-1000.000,-410.156,-71.777,-98.633,0.000,0
1639024123.323,-958.984,-693.848,-65.430,-157.227,0.000,0
1639024123.327,211.426,-226.562,-44.434,-55.664,0.000,0
1639024123.331,-842.285,348.145,-44.434,50.293,0.000,1
1639024123.335,402.832,-46.387,-49.805,53.711,0.000,0
1639024123.338,-892.090,-835.449,-48.340,-79.590,0.000,0
1639024123.342,-1000.000,-495.605,-34.668,-172.363,0.000,0
1639024123.346,-4.395,-1.953,-31.738,-83.496,0.000,0
1639024123.350,-863.770,375.488,-53.711,53.223,0.000,0
1639024123.354,571.289,455.078,-49.805,68.848,0.000,0
1639024123.358,-704.590,53.223,-40.039,-41.504,0.000,0
1639024123.362,-1000.000,-483.887,-47.363,-128.418,0.000,0
1639024123.366,-133.301,-374.512,-49.316,-72.754,0.000,0
1639024123.370,-904.785,435.059,-27.832,75.195,0.000,0
1639024123.373,716.797,522.949,-15.137,118.652,0.000,0
1639024123.377,-531.738,-261.230,-32.715,-14.648,0.000,0
1639024123.381,-1000.000,-923.828,-52.734,-128.906,0.000,0
1639024123.385,-230.957,-670.410,-52.246,-83.984,0.000,0
1639024123.389,-959.961,360.840,-47.852,55.176,0.000,0
1639024123.393,848.633,520.508,-56.152,80.078,0.000,0
1639024123.396,-354.492,-110.840,-48.828,-46.875,0.000,0
1639024123.401,-1000.000,-401.367,-26.855,-129.883,0.000,0
1639024123.405,-328.125,-176.270,-32.715,-70.801,0.000,0
1639024123.408,961.914,225.586,-28.809,58.594,0.000,0
1639024123.412,976.074,432.129,-22.949,76.660,0.000,0
1639024123.416,-161.133,203.613,-41.504,-31.738,0.000,0
1639024123.420,-1000.000,-555.664,-53.223,-134.766,0.000,0
1639024123.424,-467.773,-1000.000,-41.016,-87.891,0.000,0
1639024123.428,825.195,-361.816,-41.504,58.594,0.000,0
1639024123.431,-919.922,597.656,-52.246,111.816,0.000,0
1639024123.435,-5.371,98.145,-29.297,34.668,0.000,0
1639024123.439,-1000.000,-809.082,-20.020,-105.957,0.000,0
1639024123.443,-597.168,-727.051,-35.645,-145.508,0.000,0
1639024123.447,684.570,255.371,-46.387,-27.832,0.000,0
1639024123.451,-864.746,691.406,-50.293,75.195,0.000,0
1639024123.455,100.586,202.148,-56.152,12.695,0.000,0
1639024123.459,-1000.000,-335.938,-41.504,-108.887,0.000,0
1639024123.463,-745.605,-415.527,-39.062,-105.957,0.000,0
1639024123.466,507.324,-65.918,-49.316,12.207,0.000,0
1639024123.470,-832.520,-208.008,-38.574,94.238,0.000,0
1639024123.474,201.660,-331.543,-34.668,21.484,0.000,0
1639024123.478,-1000.000,-246.582,-33.691,-102.539,0.000,0
1639024123.482,-911.133,-601.074,-29.785,-130.371,0.000,0
1639024123.486,278.809,-252.930,-40.527,-35.156,0.000,0
1639024123.489,-822.266,551.270,-46.387,82.520,0.000,0
1639024123.494,308.594,327.148,-37.109,68.848,0.000,0
1639024123.497,-985.352,-543.457,-45.898,-58.105,0.000,0
1639024123.501,-1000.000,-718.262,-54.688,-134.766,0.000,0
1639024123.505,119.629,3.906,-49.316,-47.363,0.000,0
1639024123.509,-833.984,676.270,-53.223,65.918,0.000,0
1639024123.513,416.016,96.680,-28.320,69.336,0.000,0
1639024123.517,-877.930,-748.535,-18.066,-46.875,0.000,0
1639024123.520,-1000.000,-591.797,-53.223,-137.695,0.000,0
1639024123.524,-21.973,-44.434,-59.570,-66.895,0.000,0
1639024123.528,-868.164,119.629,-23.438,77.148,0.000,0
1639024123.532,592.285,127.441,-6.348,104.004,0.000,0
1639024123.536,-682.617,46.387,-42.480,-61.523,0.000,0
1639024123.540,-1000.000,-540.039,-60.059,-172.852,0.000,0
1639024123.544,-140.625,-422.852,-58.594,-97.656,0.000,0
1639024123.548,-911.133,323.242,-58.105,34.668,0.000,0
1639024123.552,736.816,462.891,-52.734,64.453,0.000,0
1639024123.556,-502.441,-126.465,-48.828,-34.668,0.000,0
1639024123.559,-1000.000,-822.754,-41.504,-118.164,0.000,0
1639024123.563,-233.887,-698.242,-19.043,-65.430,0.000,0
1639024123.567,-964.844,43.457,-26.855,41.504,0.000,0
1639024123.571,867.188,225.098,-57.617,81.543,0.000,0
1639024123.575,-330.078,-287.598,-43.457,-9.766,0.000,0
1639024123.579,-1000.000,-572.266,-34.180,-137.695,0.000,0
1639024123.582,-329.102,-170.410,-28.320,-91.309,0.000,0
1639024123.587,954.590,170.898,-34.668,59.082,0.000,0
1639024123.591,993.652,25.391,-32.715,109.863,0.000,0
1639024123.595,-126.465,33.691,-37.598,17.090,0.000,0
1639024123.599,-1000.000,-293.457,-59.082,-103.516,0.000,0
1639024123.602,-485.840,-539.062,-56.152,-116.211,0.000,0
1639024123.606,812.012,-147.949,-44.922,-3.418,0.000,0
1639024123.610,-916.016,301.270,-46.875,92.285,0.000,0
1639024123.614,-3.906,22.949,-47.363,13.184,0.000,0
1639024123.618,-1000.000,-749.512,-34.668,-123.535,0.000,0
1639024123.622,-595.215,-787.109,-27.832,-107.910,0.000,0
1639024123.625,684.082,141.602,-31.738,17.578,0.000,0
1639024123.629,-864.258,645.020,-41.504,83.008,0.000,0
1639024123.634,106.934,218.262,-52.246,11.719,0.000,0
1639024123.638,-1000.000,-341.797,-59.570,-120.117,0.000,0
1639024123.641,-779.785,-338.379,-57.617,-135.254,0.000,0
1639024123.645,493.652,79.102,-35.156,-9.277,0.000,0
1639024123.649,-885.254,373.047,-18.066,98.145,0.000,0
1639024123.653,105.469,94.238,-26.367,55.664,0.000,0
1639024123.657,-1000.000,-556.152,-33.203,-86.426,0.000,0
1639024123.661,-927.734,-771.484,-43.945,-136.230,0.000,0
1639024123.664,235.840,-690.430,-72.754,-41.016,0.000,0
1639024123.668,-823.242,-69.824,-48.340,55.664,0.000,0
1639024123.672,310.547,471.191,-14.648,47.363,0.000,0
1639024123.676,-983.887,-228.027,-37.598,-80.078,0.000,0
1639024123.680,-1000.000,-666.992,-49.805,-144.043,0.000,0
1639024123.684,99.609,19.043,-45.410,-27.832,0.000,0
1639024123.688,-838.867,714.844,-41.992,104.980,0.000,0
1639024123.692,443.359,510.742,-29.297,94.238,0.000,0
1639024123.696,-851.562,-215.332,-28.809,-36.621,0.000,0
1639024123.700,-1000.000,-670.410,-48.340,-127.441,0.000,0
1639024123.703,-28.320,-371.582,-42.969,-63.965,0.000,0
1639024123.707,-876.465,-14.160,-24.414,87.891,0.000,0
1639024123.711,629.395,-98.145,-17.090,104.492,0.000,0
1639024123.715,-640.625,-28.320,-29.297,-41.016,0.000,0
1639024123.719,-1000.000,-332.520,-34.668,-128.906,0.000,0
1639024123.723,-129.395,-309.082,-26.367,-62.988,0.000,0
1639024123.727,-914.062,219.727,-60.059,62.988,0.000,0
1639024123.731,761.719,639.648,-69.336,89.355,0.000,0
1639024123.735,-467.285,158.691,-33.203,-8.301,0.000,0
1639024123.739,-1000.000,-597.168,-22.949,-111.328,0.000,0
1639024123.742,-244.629,-389.648,-32.715,-81.543,0.000,0
1639024123.746,-972.656,190.430,-34.668,44.922,0.000,0
1639024123.750,878.906,341.797,-44.434,87.891,0.000,0
1639024123.754,-310.547,-437.988,-33.691,-5.371,0.000,0
1639024123.758,-1000.000,-783.203,-33.203,-122.070,0.000,0
1639024123.762,-352.539,-190.918,-70.801,-116.211,0.000,0
1639024123.765,938.965,256.836,-57.617,27.344,0.000,0
1639024123.769,-999.023,448.242,-12.207,106.934,0.000,0
1639024123.774,-123.047,280.762,-18.555,0.977,0.000,0
1639024123.778,-1000.000,-226.074,-41.504,-132.324,0.000,0
1639024123.782,-489.746,-491.211,-44.434,-112.305,0.000,0
1639024123.786,807.129,-118.652,-40.039,30.273,0.000,0
1639024123.789,-913.086,571.289,-41.992,95.215,0.000,0
1639024123.793,0.488,214.844,-49.316,12.695,0.000,0
1639024123.797,-1000.000,-769.043,-56.641,-92.773,0.000,0
1639024123.801,-620.605,-836.426,-64.453,-103.516,0.000,0
1639024123.805,657.715,142.578,-51.270,-5.859,0.000,0
1639024123.809,-859.863,779.297,-31.250,77.148,0.000,0
1639024123.812,102.051,270.020,-26.855,7.812,0.000,0
1639024123.816,-1000.000,-385.254,-22.949,-126.953,0.000,0
1639024123.821,-784.668,-369.141,-26.855,-133.789,0.000,0
1639024123.824,457.031,125.977,-39.551,-11.719,0.000,0
1639024123.828,-827.148,473.633,-41.016,113.770,0.000,0
1639024123.832,204.102,344.727,-40.527,58.594,0.000,0
1639024123.836,-1000.000,-185.059,-34.180,-92.773,0.000,0
1639024123.840,-936.523,-732.910,-20.508,-118.164,0.000,0
1639024123.844,229.492,-583.496,-25.879,-8.789,0.000,0
1639024123.847,-822.754,78.613,-44.434,100.098,0.000,0
1639024123.851,307.617,191.895,-65.430,50.293,0.000,0
1639024123.855,-984.863,-356.445,-53.711,-92.773,0.000,0
1639024123.859,-1000.000,-916.992,-39.062,-129.883,0.000,0
1639024123.863,95.703,-296.387,-38.086,-31.738,0.000,0
1639024123.867,-837.402,722.656,-22.461,92.773,0.000,0
1639024123.871,437.012,471.191,-5.371,89.355,0.000,0
1639024123.875,-854.492,-285.645,-21.973,-46.875,0.000,0
1639024123.878,-1000.000,-492.188,-49.316,-126.465,0.000,0
1639024123.882,-48.340,-85.938,-59.082,-64.453,0.000,0
1639024123.886,-873.047,52.246,-53.223,45.898,0.000,0
1639024123.890,610.840,-197.754,-31.738,54.688,0.000,0
1639024123.894,-658.203,-124.023,-16.113,-50.781,0.000,0
1639024123.898,-1000.000,-453.125,-41.992,-160.645,0.000,0
1639024123.901,-171.387,-541.992,-45.898,-108.398,0.000,0
1639024123.905,-922.852,198.730,-46.387,47.852,0.000,0
1639024123.909,765.625,667.480,-51.758,88.867,0.000,0
1639024123.914,-474.609,83.984,-36.621,-30.762,0.000,0
1639024123.918,-1000.000,-626.953,-40.039,-124.512,0.000,0
1639024123.921,-254.883,-375.000,-36.133,-79.102,0.000,0
1639024123.925,-975.586,457.520,-35.645,33.203,0.000,0
1639024123.929,875.977,587.891,-46.875,52.734,0.000,0
1639024123.933,-319.824,-253.906,-50.781,-53.711,0.000,0
1639024123.937,-1000.000,-976.074,-30.762,-133.301,0.000,0
1639024123.941,-353.516,-682.129,-16.113,-65.430,0.000,0
1639024123.944,937.500,108.398,-55.664,50.781,0.000,0
1639024123.948,-998.047,320.801,-73.730,74.219,0.000,0
1639024123.952,-123.047,87.402,-53.711,-13.672,0.000,0
1639024123.956,-1000.000,-327.148,-41.016,-148.438,0.000,0
1639024123.961,-508.301,-683.594,-29.297,-141.113,0.000,0
1639024123.964,779.785,-428.223,-30.762,13.672,0.000,0
1639024123.968,-898.438,473.145,-35.645,103.516,0.000,0
1639024123.972,13.184,359.375,-31.250,33.691,0.000,0
1639024123.976,-1000.000,-591.797,-28.809,-82.031,0.000,0
1639024123.980,-602.539,-874.512,-40.527,-97.168,0.000,0
1639024123.984,624.512,-240.234,-43.457,8.789,0.000,0
1639024123.987,-852.051,556.152,-42.480,92.285,0.000,0
1639024123.991,112.793,-49.316,-41.992,43.457,0.000,0
1639024123.995,-1000.000,-986.328,-22.949,-77.148,0.000,0
1639024123.999,-803.223,-524.414,-33.203,-129.883,0.000,0
1639024124.003,428.711,143.555,-61.523,-32.227,0.000,0
1639024124.007,-825.195,502.441,-63.477,71.777,0.000,0
1639024124.011,214.844,378.906,-42.480,36.133,0.000,0
1639024124.015,-1000.000,-159.180,-32.227,-82.520,0.000,0
1639024124.019,-937.500,-569.824,-32.715,-104.980,0.000,0
1639024124.023,232.910,-225.586,-41.992,-3.418,0.000,0
1639024124.026,-822.266,345.215,-47.363,88.379,0.000,0
1639024124.030,312.012,192.871,-45.410,55.664,0.000,0
1639024124.034,-978.027,-543.945,-58.105,-82.520,0.000,0
1639024124.038,-1000.000,-972.168,-29.785,-127.441,0.000,0
1639024124.042,77.637,-298.828,-26.367,-34.668,0.000,0
1639024124.046,-835.449,618.652,-50.781,60.547,0.000,0
1639024124.049,427.246,429.199,-47.363,47.363,0.000,0
1639024124.054,-862.305,-339.355,-53.711,-95.215,0.000,0
1639024124.058,-1000.000,-490.234,-56.152,-156.738,0.000,0
1639024124.062,-70.801,-40.527,-40.039,-64.941,0.000,0
1639024124.066,-872.070,350.586,-34.180,81.055,0.000,0
1639024124.070,600.586,349.609,-44.434,103.027,0.000,0
1639024124.074,-672.852,-270.508,-24.902,-49.316,0.000,0
1639024124.077,-1000.000,-798.340,-22.949,-167.969,0.000,0
1639024124.081,-185.059,-875.977,-25.391,-90.820,0.000,0
1639024124.085,-925.781,-421.875,-40.039,46.875,0.000,0
1639024124.089,761.719,488.770,-62.988,53.711,0.000,0
1639024124.093,-481.934,111.328,-45.898,-33.203,0.000,0
1639024124.097,-1000.000,-680.664,-45.410,-126.953,0.000,0
1639024124.101,-264.648,-375.000,-42.480,-73.242,0.000,0
1639024124.105,-982.910,528.809,-27.832,83.496,0.000,0
1639024124.109,888.672,699.707,-34.668,94.238,0.000,0
1639024124.113,-297.852,-9.766,-50.781,-20.020,0.000,0
1639024124.116,-1000.000,-556.641,-51.270,-144.043,0.000,0
1639024124.120,-381.836,-507.812,-40.527,-127.441,0.000,0
1639024124.124,911.133,-66.406,-35.645,20.508,0.000,1
1639024124.128,-979.980,182.617,-35.156,98.633,0.000,0
1639024124.132,-96.680,63.477,-37.598,13.672,0.000,0
1639024124.136,-1000.000,-477.051,-31.738,-118.652,0.000,0
1639024124.139,-509.277,-756.836,-39.062,-125.977,0.000,0
1639024124.143,782.227,-486.816,-46.387,8.789,0.000,0
1639024124.148,-901.855,305.176,-58.594,89.844,0.000,0
1639024124.151,21.484,429.688,-70.801,-3.418,0.000,0
1639024124.155,-1000.000,-521.973,-59.082,-145.508,0.000,0
1639024124.159,-657.227,-648.926,-40.039,-142.090,0.000,0
1639024124.163,613.770,172.852,-39.551,-25.879,0.000,0
1639024124.167,-849.609,561.523,-45.410,63.477,0.000,0
1639024124.171,122.559,-165.039,-47.852,16.113,0.000,0
1639024124.174,-1000.000,-907.227,-39.062,-112.305,0.000,0
1639024124.178,-812.012,-495.117,-37.598,-137.207,0.000,0
1639024124.182,421.387,162.598,-26.855,-10.254,0.000,0
1639024124.186,-824.219,455.078,-33.691,97.656,0.000,0
1639024124.190,219.727,266.113,-40.527,55.664,0.000,0
1639024124.195,-1000.000,-318.848,-38.574,-75.195,0.000,0
1639024124.198,-952.148,-753.906,-59.570,-135.254,0.000,0
1639024124.202,209.961,-307.617,-62.988,-27.344,0.000,0
1639024124.206,-823.242,491.699,-47.852,90.820,0.000,0
1639024124.210,330.078,479.004,-34.180,46.875,0.000,0
1639024124.214,-962.891,-400.879,-32.715,-83.008,0.000,0
1639024124.218,-1000.000,-997.070,-31.250,-124.023,0.000,0
1639024124.221,63.965,-506.836,-27.832,-34.668,0.000,0
1639024124.225,-840.820,583.008,-35.156,72.754,0.000,0
1639024124.229,458.008,481.934,-37.598,57.129,0.000,0
1639024124.233,-834.473,-342.773,-25.879,-66.406,0.000,0
1639024124.237,-1000.000,-495.605,-34.668,-123.535,0.000,0
1639024124.241,-66.406,-9.766,-57.129,-42.480,0.000,0
1639024124.245,-874.023,362.305,-53.223,88.867,0.000,0
1639024124.249,610.840,339.355,-41.504,87.891,0.000,0
1639024124.253,-659.668,-154.785,-35.156,-51.758,0.000,0
1639024124.256,-1000.000,-639.160,-20.508,-120.117,0.000,0
1639024124.260,-185.059,-513.184,-12.207,-42.969,0.000,0
1639024124.264,-926.270,70.801,-32.227,67.383,0.000,0
1639024124.268,766.113,591.309,-51.758,75.195,0.000,0
1639024124.272,-475.098,161.133,-52.734,-41.504,0.000,0
1639024124.276,-1000.000,-717.773,-26.367,-133.301,0.000,0
1639024124.279,-273.926,-736.328,-24.902,-66.406,0.000,0
1639024124.283,-986.816,345.215,-54.688,82.031,0.000,0
1639024124.288,891.113,634.277,-48.828,102.051,0.000,0
1639024124.292,-296.875,-50.781,-36.133,-29.785,0.000,0
1639024124.296,-1000.000,-527.344,-30.273,-152.344,0.000,0
1639024124.299,-402.344,-269.531,-25.879,-121.094,0.000,0
1639024124.303,900.391,276.367,-31.738,21.484,0.000,0
1639024124.307,-984.375,196.777,-43.457,93.262,0.000,0
1639024124.311,-117.188,-295.898,-33.203,8.789,0.000,0
1639024124.315,-1000.000,-769.531,-34.180,-116.699,0.000,0
1639024124.319,-549.805,-839.844,-50.293,-110.840,0.000,0
1639024124.322,739.746,-377.930,-44.434,15.625,0.000,0
1639024124.326,-896.484,331.055,-47.363,92.285,0.000,0
1639024124.330,11.719,351.562,-46.875,16.602,0.000,0
1639024124.335,-1000.000,-489.258,-17.090,-96.191,0.000,0
1639024124.339,-682.617,-690.430,-24.902,-101.074,0.000,0
1639024124.342,580.566,135.254,-53.711,-2.930,0.000,0
1639024124.346,-845.215,695.312,-36.621,106.934,0.000,0
1639024124.350,124.023,179.688,-37.109,59.082,0.000,0
1639024124.354,-1000.000,-782.715,-75.195,-114.258,0.000,0
1639024124.358,-825.195,-811.035,-54.688,-143.066,0.000,0
1639024124.362,399.902,157.715,-32.227,-37.598,0.000,0
1639024124.365,-823.730,227.539,-38.086,91.797,0.000,0
1639024124.369,239.746,-543.945,-28.809,87.402,0.000,0
1639024124.373,-1000.000,-516.602,-20.508,-58.594,0.000,0
1639024124.377,-949.707,-417.480,-24.902,-101.562,0.000,0
1639024124.381,222.656,-123.535,-26.855,-6.836,0.000,0
1639024124.385,-828.125,503.906,-50.781,73.730,0.000,0
1639024124.389,355.469,579.590,-65.918,21.484,0.000,0
1639024124.393,-962.891,-133.301,-57.129,-99.609,0.000,0
1639024124.397,-1000.000,-667.969,-48.828,-137.207,0.000,0
1639024124.401,141.113,-363.770,-32.227,-31.250,0.000,0
1639024124.404,-856.934,232.422,-29.785,102.539,0.000,0
1639024124.408,485.840,247.070,-28.320,76.660,0.000,0
1639024124.412,-800.781,-623.535,-9.766,-41.016,0.000,0
1639024124.416,-1000.000,-862.793,-21.973,-106.934,0.000,0
1639024124.420,-75.195,-41.016,-52.734,-65.430,0.000,0
1639024124.424,-879.883,467.773,-72.266,59.570,0.000,0
1639024124.428,632.324,231.445,-53.223,83.496,0.000,0
1639024124.432,-632.812,-192.871,-25.391,-28.809,0.000,0
1639024124.436,-1000.000,-386.719,-21.484,-128.418,0.000,0
1639024124.440,-188.965,-335.449,-12.207,-77.637,0.000,0
1639024124.444,-927.734,220.215,-35.645,40.527,0.000,0
1639024124.447,766.602,417.969,-58.594,50.293,0.000,0
1639024124.451,-472.656,-206.543,-49.316,-53.223,0.000,0
1639024124.455,-1000.000,-857.422,-41.504,-139.648,0.000,0
1639024124.459,-283.203,-727.051,-45.410,-85.449,0.000,0
1639024124.463,-994.629,331.543,-45.898,57.129,0.000,0
1639024124.467,907.715,720.215,-32.227,101.562,0.000,0
1639024124.470,-272.461,41.992,-41.992,-4.395,0.000,0
1639024124.475,-1000.000,-504.395,-52.734,-123.535,0.000,0
1639024124.479,-396.484,-225.586,-34.668,-86.914,0.000,0
1639024124.483,905.273,389.160,-36.133,54.199,0.000,0
1639024124.487,-983.398,385.742,-63.477,71.289,0.000,0
1639024124.491,-112.793,-43.457,-60.547,-38.086,0.000,0
1639024124.494,-1000.000,-541.992,-34.668,-127.441,0.000,0
1639024124.498,-539.551,-713.379,-37.598,-106.445,0.000,0
1639024124.502,747.559,-564.941,-38.574,28.320,0.000,0
1639024124.506,-891.113,73.242,-24.902,113.770,0.000,0
1639024124.510,35.156,443.359,-38.574,35.156,0.000,0
1639024124.514,-1000.000,-405.273,-37.109,-88.867,0.000,0
1639024124.517,-685.547,-681.641,-34.180,-114.746,0.000,0
1639024124.522,580.078,130.371,-29.785,-0.977,0.000,0
1639024124.526,-843.262,731.445,-28.809,103.516,0.000,0
1639024124.530,139.648,238.770,-34.180,55.176,0.000,0
1639024124.533,-1000.000,-535.645,-37.109,-100.098,0.000,0
1639024124.537,-842.773,-475.098,-37.109,-133.789,0.000,0
1639024124.541,373.535,-131.836,-23.438,-9.277,0.000,0
1639024124.545,-822.266,82.031,-23.438,94.727,0.000,0
1639024124.549,236.328,74.219,-45.410,45.410,0.000,0
1639024124.553,-1000.000,-248.047,-46.875,-99.121,0.000,0
1639024124.556,-967.285,-364.746,-35.156,-153.320,0.000,0
1639024124.560,187.500,-510.254,-28.809,-31.250,0.000,0
1639024124.564,-825.684,-271.484,-21.484,100.098,0.000,0
1639024124.568,352.539,454.102,-41.016,57.129,0.000,0
1639024124.572,-942.871,-98.145,-61.035,-88.867,0.000,0
1639024124.576,-1000.000,-722.656,-41.016,-167.969,0.000,0
1639024124.580,48.340,-222.656,-14.648,-50.293,0.000,0
1639024124.584,-846.680,476.074,-37.109,94.238,0.000,0
1639024124.588,483.887,298.340,-68.848,72.754,0.000,0
1639024124.591,-805.176,-633.789,-64.941,-64.453,0.000,0
1639024124.595,-1000.000,-944.336,-39.062,-131.348,0.000,0
1639024124.599,-74.219,-164.062,-19.043,-41.504,0.000,0
1639024124.603,-879.395,373.535,-9.277,99.609,0.000,0
1639024124.607,634.277,265.137,-21.973,79.102,0.000,0
1639024124.611,-631.836,-151.855,-42.969,-79.590,0.000,0
1639024124.615,-1000.000,-397.461,-40.527,-156.738,0.000,0
1639024124.619,-196.777,-306.152,-55.664,-85.938,0.000,0
1639024124.623,-939.453,189.941,-53.223,35.645,0.000,0
1639024124.626,800.781,637.207,-24.902,77.148,0.000,0
1639024124.630,-421.875,138.184,-1.465,-3.418,0.000,0
1639024124.634,-1000.000,-772.949,10.742,-94.238,0.000,0
1639024124.638,-287.598,-746.582,-38.574,-84.473,0.000,0
1639024124.642,-998.047,302.246,-67.871,31.738,0.000,0
1639024124.646,917.480,724.609,-44.922,92.285,0.000,0
1639024124.650,-254.395,-71.289,-41.016,-23.926,0.000,0
1639024124.653,-1000.000,-697.754,-36.621,-128.906,0.000,0
1639024124.657,-401.855,-299.805,-45.410,-88.867,0.000,0
1639024124.662,897.949,294.434,-20.996,65.430,0.000,0
1639024124.666,-975.098,423.340,-35.156,105.957,0.000,0
1639024124.670,-88.379,90.332,-63.477,-1.953,0.000,0
1639024124.673,-1000.000,-393.066,-38.574,-133.301,0.000,0
1639024124.677,-516.113,-501.465,-29.785,-127.441,0.000,0
1639024124.681,796.875,-227.051,-36.133,17.578,0.000,0
1639024124.685,-894.531,104.980,-43.945,89.844,0.000,0
1639024124.689,37.109,-38.086,-31.250,32.227,0.000,0
1639024124.693,-1000.000,-607.422,-13.184,-107.422,0.000,0
1639024124.696,-697.266,-860.352,-21.973,-133.789,0.000,0
1639024124.700,566.406,-137.207,-48.828,-12.207,0.000,0
1639024124.704,-842.773,724.121,-60.547,87.402,0.000,0
1639024124.709,145.996,283.203,-37.109,38.574,0.000,0
1639024124.712,-1000.000,-566.406,-23.926,-102.051,0.000,0
1639024124.716,-805.176,-479.980,-25.879,-124.023,0.000,0
1639024124.720,432.129,-30.762,-16.113,13.184,0.000,0
1639024124.724,-829.590,191.895,-30.762,115.234,0.000,0
1639024124.728,234.375,-69.336,-58.594,65.430,0.000,0
1639024124.732,-1000.000,-606.445,-49.316,-96.680,0.000,0
1639024124.736,-979.004,-541.504,-45.410,-166.504,0.000,0
1639024124.739,162.109,-521.973,-37.598,-36.621,0.000,0
1639024124.743,-826.660,-331.055,-31.738,93.750,0.000,0
1639024124.747,356.445,328.613,-43.457,49.316,0.000,0
1639024124.751,-937.500,-150.879,-36.621,-49.316,0.000,0
1639024124.755,-1000.000,-765.137,-32.227,-85.938,0.000,0
1639024124.759,33.203,-293.457,-55.664,-33.691,0.000,0
1639024124.763,-847.656,492.188,-65.918,51.758,0.000,0
1639024124.767,490.723,436.035,-41.992,40.527,0.000,0
1639024124.771,-796.875,-362.793,-22.461,-62.500,0.000,0
1639024124.775,-1000.000,-930.176,-13.672,-105.957,0.000,0
1639024124.779,-89.355,-597.656,-19.531,-35.645,0.000,0
1639024124.782,-884.766,102.051,-26.855,73.242,0.000,0
1639024124.786,644.043,-221.191,-23.438,75.195,0.000,0
1639024124.790,-612.793,-570.312,-39.551,-58.105,0.000,0
1639024124.794,-1000.000,-433.105,-53.223,-156.738,0.000,0
1639024124.798,-208.496,-408.203,-52.246,-101.562,0.000,0
1639024124.802,-942.383,107.422,-46.875,35.645,0.000,0
1639024124.806,803.223,555.176,-14.648,86.914,0.000,0
1639024124.810,-422.852,137.207,0.000,-30.762,0.000,0
1639024124.814,-1000.000,-634.766,-18.066,-156.250,0.000,0
1639024124.818,-308.594,-616.699,-41.992,-125.000,0.000,0
1639024124.821,985.352,49.316,-55.176,-0.977,0.000,0
1639024124.825,929.199,281.738,-45.410,48.340,0.000,0
1639024124.829,-241.699,-379.395,-38.086,-7.324,0.000,0
1639024124.833,-1000.000,-956.055,-38.574,-96.680,0.000,0
1639024124.837,-416.992,-500.488,-26.855,-107.910,0.000,0
1639024124.841,881.348,54.688,6.836,36.621,0.000,0
1639024124.844,-959.473,327.148,4.883,103.516,0.000,0
1639024124.849,-73.730,144.531,-32.715,-30.762,0.000,0
1639024124.853,-1000.000,-297.363,-58.594,-168.457,0.000,0
1639024124.857,-566.895,-437.988,-83.496,-146.973,0.000,0
1639024124.860,746.582,22.461,-47.852,14.648,0.000,0
1639024124.864,-941.895,489.746,-20.996,101.562,0.000,0
1639024124.868,-44.434,9.766,-19.531,24.414,0.000,0
1639024124.872,-1000.000,-756.836,-18.555,-117.188,0.000,0
1639024124.876,-712.402,-994.629,-45.898,-138.672,0.000,0
1639024124.880,550.781,-251.465,-65.918,-21.973,0.000,0
1639024124.884,-838.379,692.383,-54.199,55.664,0.000,0
1639024124.887,149.414,305.664,-31.738,7.324,0.000,0
1639024124.891,-1000.000,-521.973,-6.836,-108.398,0.000,0
1639024124.896,-855.957,-576.660,1.953,-117.188,0.000,0
1639024124.900,350.586,-194.824,-20.996,-21.973,0.000,0
1639024124.904,-821.777,161.621,-35.156,96.191,0.000,0
1639024124.907,250.488,154.785,-51.758,57.129,0.000,0
1639024124.911,-1000.000,-245.117,-48.828,-112.793,0.000,0
1639024124.915,-984.375,-681.152,-31.738,-158.691,0.000,0
1639024124.919,159.180,-704.590,-21.973,-44.922,0.000,0
1639024124.923,-827.148,-283.691,-8.789,86.426,0.000,0
1639024124.927,368.652,306.152,-19.531,63.965,0.000,0
1639024124.931,-925.293,-133.789,-54.688,-64.941,0.000,0
1639024124.934,-1000.000,-782.715,-47.363,-145.508,0.000,0
1639024124.938,12.207,-315.430,-37.109,-69.336,0.000,0
1639024124.942,-848.633,526.367,-35.156,82.520,0.000,0
1639024124.946,495.117,492.676,-25.391,79.102,0.000,0
1639024124.950,-791.016,-260.254,-29.785,-61.035,0.000,0
1639024124.954,-1000.000,-637.207,-39.551,-145.996,0.000,0
1639024124.958,-116.699,-392.578,-40.527,-60.059,0.000,0
1639024124.962,-887.207,66.895,-30.273,69.336,0.000,0
1639024124.966,648.926,57.617,-19.043,78.613,0.000,0
1639024124.969,-615.723,-385.254,-27.344,-33.203,0.000,0
1639024124.973,-1000.000,-522.461,-59.570,-130.859,0.000,0
1639024124.977,-223.633,-346.191,-74.219,-82.031,0.000,0
1639024124.981,-945.312,-312.500,-45.410,30.273,0.000,0
1639024124.985,797.363,103.516,-37.109,58.105,0.000,0
1639024124.989,-435.547,141.113,-36.621,-33.203,0.000,0
1639024124.993,-1000.000,-694.336,-19.043,-120.117,0.000,0
1639024124.997,-312.988,-677.246,-40.039,-69.824,0.000,1
1639024125.001,985.352,263.672,-69.824,67.871,0.000,0
1639024125.004,924.805,611.816,-45.898,127.930,0.000,0
1639024125.008,-254.883,-247.070,-14.648,-6.836,0.000,0
1639024125.012,-1000.000,-999.023,-18.555,-156.738,0.000,0
1639024125.016,-422.363,-668.945,-28.809,-121.582,0.000,0
1639024125.020,871.094,156.250,-20.996,30.762,0.000,0
1639024125.024,-946.289,414.062,-15.625,124.023,0.000,0
1639024125.028,-45.410,-22.949,-44.922,28.320,0.000,0
1639024125.031,-1000.000,-456.543,-62.500,-116.211,0.000,0
1639024125.036,-549.316,-479.492,-45.410,-92.285,0.000,0
1639024125.040,735.352,-18.555,-43.457,19.043,0.000,0
1639024125.044,-879.395,479.004,-43.457,72.754,0.000,0
1639024125.047,74.707,355.469,-15.625,13.184,0.000,0
1639024125.051,-1000.000,-356.445,2.930,-92.773,0.000,0
1639024125.055,-692.383,-787.598,-27.344,-110.840,0.000,0
1639024125.059,573.242,-338.867,-48.828,1.465,0.000,0
1639024125.063,-840.332,382.324,-51.270,101.074,0.000,0
1639024125.067,178.711,291.504,-60.059,41.016,0.000,0
1639024125.071,-1000.000,-688.477,-40.039,-103.516,0.000,0
1639024125.074,-848.633,-891.602,-22.461,-133.789,0.000,0
1639024125.078,375.488,76.660,-31.250,-37.109,0.000,0
1639024125.083,-824.219,533.203,-20.996,72.754,0.000,0
1639024125.087,271.484,212.891,-17.090,47.363,0.000,0
1639024125.090,-1000.000,-262.207,-28.320,-99.121,0.000,0
1639024125.094,-983.398,-464.844,-38.086,-143.555,0.000,0
1639024125.098,169.434,-201.660,-50.293,-34.180,0.000,0
1639024125.102,-831.055,93.262,-58.594,93.750,0.000,0
1639024125.106,388.672,191.406,-46.875,78.125,0.000,0
1639024125.110,-902.832,-182.129,-21.973,-73.242,0.000,0
1639024125.114,-1000.000,-844.238,-9.766,-133.301,0.000,0
1639024125.117,-4.883,-682.617,-16.113,-35.156,0.000,0
1639024125.121,-853.027,409.180,-37.598,71.289,0.000,0
1639024125.125,516.113,598.145,-46.387,58.594,0.000,0
1639024125.130,-772.461,-290.527,-47.363,-62.012,0.000,0
1639024125.133,-1000.000,-860.352,-32.227,-134.766,0.000,0
1639024125.137,-102.539,-270.508,-20.020,-57.617,0.000,0
1639024125.141,-890.137,478.516,-33.691,89.844,0.000,0
1639024125.145,671.387,423.828,-28.320,135.742,0.000,0
1639024125.149,-588.379,-281.738,-31.738,-32.227,0.000,0
1639024125.153,-1000.000,-837.402,-40.527,-189.453,0.000,0
1639024125.157,-226.562,-616.699,-31.250,-113.770,0.000,0
1639024125.160,-952.148,-376.465,-44.922,63.965,0.000,0
1639024125.164,819.824,69.336,-43.945,116.699,0.000,0
1639024125.168,-401.855,169.434,-45.410,-22.461,0.000,0
1639024125.172,-1000.000,-607.910,-51.758,-158.691,0.000,0
1639024125.176,-312.500,-576.660,-38.086,-99.609,0.000,0
1639024125.180,979.004,348.633,-19.043,63.477,0.000,0
1639024125.184,946.777,733.398,-7.324,98.145,0.000,0
1639024125.188,-234.863,-10.742,-32.227,-22.461,0.000,0
1639024125.192,-1000.000,-837.402,-39.551,-132.324,0.000,0
1639024125.196,-368.652,-738.770,-52.246,-110.840,0.000,0
1639024125.199,857.422,-5.859,-63.965,7.812,0.000,0
1639024125.203,-954.590,59.082,-48.340,116.699,0.000,0
1639024125.207,-68.848,-588.867,-28.320,45.898,0.000,0
1639024125.211,-1000.000,-520.020,-32.227,-117.676,0.000,0
1639024125.215,-572.754,-340.820,-41.016,-128.906,0.000,0
1639024125.219,708.984,15.137,-6.836,20.020,0.000,0
1639024125.223,-874.512,523.926,0.488,121.582,0.000,0
1639024125.227,68.848,353.027,-37.109,44.434,0.000,0
1639024125.231,-1000.000,-384.277,-48.828,-78.613,0.000,0
1639024125.235,-707.520,-632.812,-47.363,-89.355,0.000,0
1639024125.238,553.711,0.977,-39.551,10.742,0.000,0
1639024125.242,-839.844,439.453,-47.852,95.703,0.000,0
1639024125.246,163.086,14.160,-38.086,44.434,0.000,0
1639024125.250,-1000.000,-776.367,-18.555,-95.703,0.000,0
1639024125.254,-863.770,-933.594,-28.809,-144.531,0.000,0
1639024125.258,349.609,-22.461,-54.199,-18.555,0.000,0
1639024125.262,-821.777,549.805,-61.523,116.211,0.000,0
1639024125.265,263.184,215.332,-30.273,44.434,0.000,0
1639024125.270,-1000.000,-228.516,-30.273,-129.883,0.000,0
1639024125.274,-992.676,-416.504,-42.480,-152.832,0.000,0
1639024125.277,148.438,-257.324,-20.020,-37.598,0.000,0
1639024125.281,-828.125,297.852,-12.207,91.309,0.000,0
1639024125.285,376.953,428.711,-28.320,72.266,0.000,0
1639024125.289,-914.062,-358.887,-40.527,-102.051,0.000,0
1639024125.293,-1000.000,-985.840,-29.297,-145.020,0.000,0
1639024125.297,-13.184,-666.504,-41.504,-27.832,0.000,0
1639024125.301,-854.004,428.223,-60.059,76.172,0.000,0
1639024125.304,519.531,586.426,-41.504,48.828,0.000,0
1639024125.308,-766.602,-313.965,-36.133,-85.938,0.000,0
1639024125.312,-1000.000,-698.730,-50.781,-145.996,0.000,0
1639024125.316,-114.258,-132.324,-47.363,-59.570,0.000,0
1639024125.320,-895.020,482.910,-40.039,66.406,0.000,0
1639024125.324,685.547,419.434,-31.250,87.402,0.000,0
1639024125.328,-567.383,-83.984,-20.508,7.324,0.000,0
1639024125.332,-1000.000,-403.809,-28.809,-78.125,0.000,0
1639024125.336,-231.445,-335.449,-38.086,-67.383,0.000,0
1639024125.340,-955.566,-401.367,-35.156,45.410,0.000,0
1639024125.343,827.637,-218.750,-32.227,72.754,0.000,0
1639024125.347,-387.207,52.246,-20.508,-28.809,0.000,0
1639024125.351,-1000.000,-537.109,-8.789,-108.887,0.000,0
1639024125.355,-325.684,-604.004,-27.832,-75.684,0.000,0
1639024125.359,970.215,296.875,-46.387,44.922,0.000,0
1639024125.363,952.637,696.289,-41.016,119.629,0.000,0
1639024125.367,-207.520,-56.641,-36.621,24.414,0.000,0
1639024125.371,-1000.000,-718.262,-45.410,-145.996,0.000,0
1639024125.375,-449.219,-366.699,-43.945,-145.996,0.000,0
1639024125.378,854.492,406.738,-26.367,20.996,0.000,0
1639024125.382,-957.520,233.887,-20.508,130.859,0.000,0
1639024125.386,-74.707,-462.891,-29.785,30.273,0.000,0
1639024125.390,-1000.000,-492.188,-37.598,-150.879,0.000,0
1639024125.394,-582.031,-272.461,-32.227,-129.395,0.000,0
1639024125.398,697.266,-165.527,-35.156,13.672,0.000,0
1639024125.402,-873.047,129.883,-62.988,71.777,0.000,0
1639024125.405,69.824,353.516,-59.570,16.602,0.000,0
1639024125.410,-1000.000,-276.367,-33.691,-80.566,0.000,0
1639024125.414,-734.375,-614.746,-41.016,-128.418,0.000,0
1639024125.418,520.020,12.695,-41.992,-41.016,0.000,0
1639024125.422,-835.938,647.949,-37.598,75.684,0.000,0
1639024125.426,162.598,174.805,-40.527,38.574,0.000,0
1639024125.429,-1000.000,-745.117,-37.598,-91.797,0.000,0
1639024125.433,-880.859,-971.191,-40.527,-152.344,0.000,0
1639024125.437,318.359,-273.926,-42.969,-49.805,0.000,0
1639024125.441,-822.266,414.551,-32.227,88.379,0.000,0
1639024125.445,259.766,-40.527,-30.762,42.969,0.000,0
1639024125.449,-1000.000,-519.531,-52.246,-91.309,0.000,0
1639024125.453,-995.117,-494.629,-41.504,-112.793,0.000,0
1639024125.457,142.090,-195.312,-46.387,-39.062,0.000,0
1639024125.461,-833.008,306.152,-57.617,43.457,0.000,0
1639024125.465,403.809,448.242,-15.625,48.340,0.000,0
1639024125.469,-889.648,-87.891,24.414,-41.992,0.000,0
1639024125.472,-1000.000,-715.332,-12.695,-113.770,0.000,0
1639024125.476,-6.836,-647.461,-58.594,-58.594,0.000,0
1639024125.480,-858.887,157.227,-60.059,42.480,0.000,0
1639024125.484,542.969,326.660,-36.621,62.500,0.000,0
1639024125.488,-740.723,-527.832,-19.531,-43.457,0.000,0
1639024125.492,-1000.000,-832.031,-36.621,-128.906,0.000,0
1639024125.496,-108.887,-183.594,-46.387,-50.781,0.000,0
1639024125.499,-888.672,568.848,-28.809,63.477,0.000,0
1639024125.504,658.203,81.055,-0.488,88.379,0.000,0
1639024125.508,-597.656,-762.695,-19.531,-7.812,0.000,0
1639024125.512,-1000.000,-522.949,-58.105,-125.488,0.000,0
1639024125.515,-206.543,-231.445,-51.758,-89.844,0.000,0
1639024125.519,-989.258,90.820,-28.320,40.039,0.000,0
1639024125.523,686.035,201.660,-22.461,61.523,0.000,0
1639024125.527,-444.336,-219.727,-17.578,-19.531,0.000,0
1639024125.531,-1000.000,-770.508,-28.809,-96.680,0.000,0
1639024125.535,-341.797,-916.992,-23.438,-42.480,0.000,0
1639024125.539,965.332,-29.785,-20.508,93.262,0.000,0
1639024125.542,947.754,551.270,-67.871,83.984,0.000,0
1639024125.546,-219.238,-137.695,-70.312,-41.992,0.000,0
1639024125.551,-1000.000,-631.836,-33.691,-145.508,0.000,0
1639024125.555,-437.988,-286.621,-46.387,-116.211,0.000,0
1639024125.558,856.445,402.344,-63.965,34.668,0.000,0
1639024125.562,-940.918,554.199,-24.902,114.746,0.000,0
1639024125.566,-38.086,125.000,-3.418,38.086,0.000,0
1639024125.570,-1000.000,-585.449,-26.367,-121.582,0.000,0
1639024125.574,-604.492,-720.703,-39.551,-157.227,0.000,0
1639024125.578,674.805,-422.852,-42.480,-40.039,0.000,0
1639024125.582,-867.676,-187.988,-46.875,50.293,0.000,0
1639024125.585,79.590,266.602,-28.320,7.812,0.000,0
1639024125.589,-1000.000,-167.480,-12.207,-109.375,0.000,0
1639024125.593,-740.234,-587.891,-25.391,-122.070,0.000,0
1639024125.597,515.137,-13.672,-40.039,-13.184,0.000,0
1639024125.601,-833.984,488.281,-53.223,53.711,0.000,0
1639024125.605,172.852,199.707,-59.082,13.184,0.000,0
1639024125.609,-1000.000,-422.852,-62.988,-105.469,0.000,0
1639024125.613,-888.184,-532.227,-38.574,-126.953,0.000,0
1639024125.617,305.176,-127.930,-12.695,-7.324,0.000,0
1639024125.621,-820.801,271.973,-23.926,105.469,0.000,0
1639024125.624,241.211,-255.371,-25.879,58.105,0.000,0
1639024125.628,-1000.000,-759.277,-30.762,-107.422,0.000,0
1639024125.632,-1000.000,-408.691,-38.574,-163.574,0.000,0
1639024125.636,113.770,-160.645,-38.574,-41.016,0.000,0
1639024125.640,-828.613,260.742,-36.621,96.680,0.000,0
1639024125.644,386.230,498.535,-30.273,74.219,0.000,0
1639024125.648,-902.832,33.691,-41.992,-62.500,0.000,0
1639024125.652,-1000.000,-589.355,-41.992,-113.281,0.000,0
1639024125.656,-34.668,-372.559,-27.832,-41.504,0.000,0
1639024125.660,-851.074,349.121,-26.855,54.688,0.000,0
1639024125.663,506.348,251.953,-33.691,52.734,0.000,0
1639024125.667,-778.320,-537.598,-32.227,-64.941,0.000,0
1639024125.671,-1000.000,-942.383,-30.273,-133.789,0.000,0
1639024125.675,-140.625,-298.828,-61.523,-59.082,0.000,0
1639024125.679,-897.461,490.234,-60.059,57.617,0.000,0
1639024125.683,669.434,463.379,-31.738,65.918,0.000,0
1639024125.687,-587.891,-86.914,-12.207,-41.992,0.000,0
1639024125.691,-1000.000,-393.066,-14.160,-144.043,0.000,0
1639024125.695,-241.699,-312.012,-37.109,-76.660,0.000,0
1639024125.699,-965.820,142.090,-38.086,78.613,0.000,0
1639024125.702,851.074,551.758,-11.719,138.672,0.000,0
1639024125.706,-377.930,160.645,-26.855,16.113,0.000,0
1639024125.710,-1000.000,-611.328,-44.922,-126.953,0.000,0
1639024125.714,-282.715,-956.055,-35.645,-91.309,0.000,0
1639024125.718,934.570,-343.750,-57.617,11.230,0.000,0
1639024125.722,973.633,533.203,-71.289,51.758,0.000,0
1639024125.725,-176.758,169.434,-67.383,-39.551,0.000,0
1639024125.729,-1000.000,-586.914,-32.715,-140.137,0.000,0
1639024125.733,-439.941,-389.648,-18.066,-104.004,0.000,0
1639024125.738,855.957,368.652,-28.809,20.508,0.000,0
1639024125.742,-940.430,554.199,-34.668,98.633,0.000,0
1639024125.745,-34.668,57.129,-43.457,-7.812,0.000,0
1639024125.749,-1000.000,-347.656,-42.969,-161.621,0.000,0
1639024125.753,-593.750,-332.031,-38.086,-149.414,0.000,0
1639024125.757,684.570,-236.328,-20.020,17.090,0.000,0
1639024125.761,-868.164,-13.184,-29.785,106.445,0.000,0
1639024125.765,83.008,237.305,-46.387,18.555,0.000,0
1639024125.769,-1000.000,-206.543,-35.645,-115.234,0.000,0
1639024125.772,-777.832,-729.004,-16.602,-126.465,0.000,0
1639024125.776,468.750,-482.422,-23.438,-17.090,0.000,0
1639024125.780,-828.125,424.805,-52.734,75.195,0.000,0
1639024125.785,174.805,447.266,-55.176,24.414,0.000,0
1639024125.789,-1000.000,-409.668,-48.340,-123.535,0.000,0
1639024125.792,-895.508,-633.789,-66.895,-144.043,0.000,0
1639024125.796,298.828,85.449,-42.480,-11.230,0.000,0
1639024125.800,-820.801,644.043,-10.742,104.980,0.000,0
1639024125.804,262.207,184.570,-27.344,76.660,0.000,0
1639024125.808,-1000.000,-633.789,-48.828,-73.242,0.000,0
1639024125.812,-1000.000,-809.570,-61.523,-134.766,0.000,0
1639024125.815,114.258,-208.008,-51.758,-41.016,0.000,0
1639024125.819,-831.055,-56.152,-36.133,80.566,0.000,0
1639024125.823,398.926,23.926,-24.414,91.309,0.000,0
1639024125.827,-888.184,-1.953,-30.762,-46.875,0.000,0
1639024125.832,-1000.000,-610.840,-43.945,-158.203,0.000,0
1639024125.835,-46.387,-542.969,-38.086,-84.961,0.000,0
1639024125.839,-856.934,282.715,-33.203,59.570,0.000,0
1639024125.843,532.715,637.695,-33.691,77.637,0.000,2
1639024125.847,-750.488,-150.879,-44.922,-44.922,0.000,0
1639024125.851,-1000.000,-958.984,-54.199,-131.836,0.000,0
1639024125.855,-145.996,-523.926,-47.363,-61.523,0.000,0
1639024125.858,-895.020,553.223,-42.480,69.336,0.000,0
1639024125.862,661.133,231.445,-49.805,89.844,0.000,0
1639024125.866,-603.516,-720.703,-36.133,-21.973,0.000,0
1639024125.870,-1000.000,-571.289,-26.855,-148.926,0.000,0
1639024125.874,-249.512,-389.648,-31.250,-102.051,0.000,0
1639024125.878,-970.703,59.570,-35.645,42.480,0.000,0
1639024125.882,854.004,485.352,-33.691,99.121,0.000,0
1639024125.886,-350.098,168.457,-23.926,16.113,0.000,0
1639024125.890,-1000.000,-454.590,-34.180,-97.656,0.000,0
1639024125.894,-354.004,-686.523,-35.156,-81.055,0.000,0
1639024125.898,951.172,-127.441,-25.391,24.414,0.000,0
1639024125.901,966.309,309.082,-33.691,80.566,0.000,0
1639024125.905,-192.383,-177.246,-41.016,-9.766,0.000,0
1639024125.909,-1000.000,-857.910,-16.602,-121.094,0.000,0
1639024125.913,-448.242,-590.820,-7.812,-99.121,0.000,0
1639024125.917,851.562,393.066,-42.969,32.227,0.000,0
1639024125.921,-946.289,601.074,-67.871,91.797,0.000,0
1639024125.925,-60.547,-132.812,-50.781,-7.324,0.000,0
1639024125.929,-1000.000,-501.465,-34.668,-129.395,0.000,0
1639024125.933,-609.863,-311.523,-31.738,-126.953,0.000,0
1639024125.937,690.918,55.664,-25.879,14.648,0.000,0
1639024125.941,-920.410,398.926,-23.438,117.188,0.000,0
1639024125.944,-18.555,139.648,-17.090,49.805,0.000,0
1639024125.948,-1000.000,-575.684,-22.461,-70.801,0.000,0
