timestamps,TP9,AF7,AF8,TP10,Right AUX
1637814692.319,-0.488,-0.488,-0.488,0.000,0.000
1637814692.323,-0.488,-0.488,-11.230,0.000,0.000
1637814692.327,43.945,45.898,33.203,-42.480,0.000
1637814692.331,-143.066,-140.625,-41.016,143.066,0.000
1637814692.335,505.859,482.910,52.246,-529.785,0.000
1637814692.339,581.055,687.012,778.809,-519.531,0.000
1637814692.342,-1000.000,-1000.000,884.277,-889.160,0.000
1637814692.346,-376.465,-574.707,811.035,267.578,0.000
1637814692.350,982.910,913.574,933.594,-1000.000,0.000
1637814692.354,-971.191,-973.145,917.480,-1000.000,0.000
1637814692.358,740.723,838.379,947.754,-636.230,0.000
1637814692.362,-856.934,-640.137,579.102,984.863,0.000
1637814692.365,-603.027,-848.633,548.340,473.145,0.000,0
1637814692.369,919.922,717.773,919.922,-971.680,0.000,0
1637814692.373,-999.023,-978.027,883.301,-1000.000,0.000,0
1637814692.377,931.152,992.676,978.027,-873.047,0.000,0
1637814692.381,-517.090,-281.738,345.703,666.504,0.000,0
1637814692.384,-851.074,-1000.000,41.016,678.711,0.000,0
1637814692.388,769.531,477.539,824.707,-915.039,0.000,0
1637814692.392,-993.164,-963.379,876.953,-1000.000,0.000,0
1637814692.396,-976.562,-967.285,980.957,-1000.000,0.000,0
1637814692.400,-141.602,2.930,145.020,257.324,0.000,0
1637814692.404,-1000.000,-1000.000,-653.809,962.402,0.000,0
1637814692.407,321.289,113.770,468.750,-625.000,0.000,0
1637814692.412,-947.754,-953.613,893.066,-1000.000,0.000,0
1637814692.416,-960.938,-947.266,924.316,-1000.000,0.000,0
1637814692.420,53.711,187.500,107.910,-11.230,0.000,0
1637814692.424,-1000.000,-1000.000,-910.156,-839.844,0.000,0
1637814692.428,83.496,-105.957,97.656,-265.137,0.000,0
1637814692.432,-957.031,-978.516,819.336,-1000.000,0.000,0
1637814692.436,-943.359,-929.199,888.184,-1000.000,0.000,0
1637814692.439,234.863,229.492,100.098,-212.402,0.000,0
1637814692.443,-1000.000,-1000.000,-1000.000,-830.566,0.000,0
1637814692.447,-124.023,-203.125,-163.574,-41.016,0.000,0
1637814692.451,-976.562,-997.559,740.234,-1000.000,0.000,0
1637814692.455,-929.688,-917.969,843.262,-1000.000,0.000,0
1637814692.463,228.516,229.492,104.980,-271.484,0.000,0
1637814692.467,-1000.000,-1000.000,-1000.000,-827.148,0.000,0
1637814692.471,-209.961,-204.102,-429.199,177.246,0.000,0
1637814692.475,-980.469,-986.328,570.801,-1000.000,0.000,0
1637814692.479,-974.121,-979.004,763.672,-1000.000,0.000,0
1637814692.483,151.855,291.992,68.848,-167.969,0.000,0
1637814692.487,-1000.000,-1000.000,-1000.000,-840.820,0.000,0
1637814692.491,-197.266,-298.340,-612.793,165.527,0.000,0
1637814692.495,991.211,971.680,364.746,-1000.000,0.000,0
1637814692.499,-926.270,-934.570,752.930,-1000.000,0.000,0
1637814692.503,425.293,555.176,182.129,-355.469,0.000,0
1637814692.507,-1000.000,-1000.000,-952.637,-863.770,0.000,0
1637814692.520,-338.379,-525.391,-804.688,173.340,0.000,0
1637814692.524,965.332,911.133,164.551,-1000.000,0.000,0
1637814692.528,-937.500,-952.148,698.730,-1000.000,0.000,0
1637814692.532,602.539,749.023,261.719,-555.176,0.000,0
1637814692.536,-1000.000,-769.043,-831.055,-955.566,0.000,0
1637814692.540,-575.195,-809.082,-907.227,403.320,0.000,0
1637814692.545,901.367,732.422,23.926,-980.957,0.000,0
1637814692.549,-971.191,-964.844,666.992,-1000.000,0.000,0
1637814692.553,839.844,935.547,349.121,-768.555,0.000,0
1637814692.557,-644.531,-373.535,-691.895,813.477,0.000,0
1637814692.561,-851.562,-1000.000,-989.746,636.719,0.000,0
1637814692.565,728.027,430.664,-123.535,-914.062,0.000,0
1637814692.590,-986.328,-951.660,569.824,-1000.000,0.000,1
1637814692.595,-984.863,-979.004,516.602,-970.703,0.000,0
1637814692.599,-224.121,-71.289,-416.016,406.250,0.000,0
1637814692.604,-1000.000,-1000.000,-1000.000,951.172,0.000,0
1637814692.609,419.922,154.785,-303.711,-623.535,0.000,0
1637814692.613,-955.078,-951.172,488.770,-1000.000,0.000,0
1637814692.618,-963.379,-950.684,532.227,-1000.000,0.000,0
1637814692.622,21.484,148.926,-378.906,57.617,0.000,0
1637814692.627,-1000.000,-1000.000,-1000.000,-831.055,0.000,0
1637814692.631,129.883,-55.176,-447.266,-269.531,0.000,0
1637814692.636,-953.613,-970.703,409.668,-1000.000,0.000,0
1637814692.640,-945.801,-934.570,610.840,-1000.000,0.000,0
1637814692.665,236.328,232.910,-234.375,-163.574,0.000,0
1637814692.670,-1000.000,-1000.000,-1000.000,-817.871,0.000,0
1637814692.675,-102.539,-199.219,-573.242,-48.340,0.000,0
1637814692.680,-972.656,-998.047,334.961,-1000.000,0.000,0
1637814692.684,-925.781,-911.133,645.020,-1000.000,0.000,0
1637814692.689,211.914,205.078,-152.832,-252.441,0.000,0
1637814692.694,-1000.000,-1000.000,-1000.000,-881.836,0.000,0
1637814692.699,-115.723,-110.840,-668.457,82.031,0.000,0
1637814692.704,991.211,986.816,251.953,-1000.000,0.000,0
1637814692.708,-918.457,-920.410,720.703,-1000.000,0.000,0
1637814692.713,225.098,320.312,-52.246,-258.301,0.000,0
1637814692.718,-1000.000,-1000.000,-1000.000,-829.590,0.000,0
1637814692.742,-195.312,-274.414,-799.316,165.039,0.000,0
1637814692.747,993.164,975.098,77.637,-1000.000,0.000,0
1637814692.752,-924.316,-928.711,637.207,-1000.000,0.000,0
1637814692.757,402.344,502.930,-16.113,-355.469,0.000,0
1637814692.762,-1000.000,-1000.000,-1000.000,-863.770,0.000,0
1637814692.767,-317.871,-482.422,-834.961,173.828,0.000,0
1637814692.772,970.703,920.410,21.484,-1000.000,0.000,0
1637814692.777,-937.988,-945.312,622.559,-1000.000,0.000,0
1637814692.782,590.332,708.496,114.746,-554.688,0.000,0
1637814692.787,-1000.000,-845.703,-950.684,-955.078,0.000,0
1637814692.793,-546.875,-726.562,-921.387,391.113,0.000,0
1637814692.798,914.551,809.082,-94.727,-986.328,0.000,0
1637814692.813,-972.656,-973.145,587.402,-1000.000,0.000,0
1637814692.818,829.590,919.922,252.930,-769.531,0.000,0
1637814692.823,-675.781,-439.941,-782.227,815.918,0.000,0
1637814692.828,-803.223,-1000.000,-997.559,620.605,0.000,0
1637814692.833,778.320,536.621,-98.145,-924.316,0.000,0
1637814692.838,-994.629,-964.355,628.906,-1000.000,0.000,0
1637814692.844,-985.840,-976.074,385.742,-976.074,0.000,0
1637814692.849,-249.512,-94.727,-571.289,417.969,0.000,0
1637814692.854,-1000.000,-1000.000,-1000.000,909.668,0.000,0
1637814692.859,479.980,234.375,-353.516,-676.758,0.000,0
1637814692.864,-959.473,-948.242,448.242,-1000.000,0.000,0
1637814692.869,-966.797,-955.078,484.863,-1000.000,0.000,0
1637814692.877,-5.371,120.605,-449.219,85.449,0.000,0
1637814692.882,-1000.000,-1000.000,-1000.000,-883.301,0.000,0
1637814692.887,123.047,-31.738,-484.375,-333.008,0.000,0
1637814692.892,-893.066,-910.156,407.227,-1000.000,0.000,0
1637814692.897,900.879,914.551,478.027,-934.082,0.000,0
1637814692.902,-119.629,-49.805,-475.586,146.484,0.000,0
1637814692.908,-1000.000,-1000.000,-1000.000,-848.633,0.000,0
1637814692.913,-85.449,-185.547,-590.820,-134.277,0.000,0
1637814692.918,-987.305,995.117,290.039,-1000.000,0.000,0
1637814692.923,-931.152,-919.434,606.934,-1000.000,0.000,0
1637814692.928,230.469,223.633,-210.938,-268.066,0.000,0
1637814692.933,-1000.000,-1000.000,-1000.000,-835.938,0.000,0
1637814692.935,-218.750,-215.820,-740.723,83.496,0.000,0
1637814692.940,-963.379,-964.844,182.617,-1000.000,0.000,0
1637814692.945,983.398,982.910,557.129,-1000.000,0.000,0
1637814692.950,22.949,72.754,-251.953,-64.453,0.000,0
1637814692.955,-1000.000,-1000.000,-1000.000,-901.855,0.000,0
1637814692.960,-107.910,-153.809,-759.277,78.613,0.000,0
1637814692.966,978.516,964.844,107.910,-1000.000,0.000,0
1637814692.971,-918.945,-926.270,659.668,-1000.000,0.000,0
1637814692.976,343.750,468.262,-25.879,-288.574,0.000,0
1637814692.981,-1000.000,-1000.000,-1000.000,-840.332,0.000,0
1637814692.986,-243.164,-429.688,-833.008,165.527,0.000,0
1637814692.991,988.281,936.523,6.836,-1000.000,0.000,0
1637814692.987,-937.988,-942.871,624.023,-1000.000,0.000,0
1637814692.992,549.805,674.316,64.941,-458.496,0.000,0
1637814692.998,-1000.000,-905.762,-1000.000,-903.320,0.000,0
1637814693.003,-443.848,-652.344,-899.414,288.086,0.000,0
1637814693.008,953.125,863.770,-36.133,-1000.000,0.000,0
1637814693.013,-970.703,-974.121,626.953,-1000.000,0.000,0
1637814693.018,772.461,886.230,319.336,-637.207,0.000,0
1637814693.023,-797.852,-527.344,-708.984,978.516,0.000,0
1637814693.028,-677.734,-948.730,-981.445,516.602,0.000,0
1637814693.033,881.348,612.793,-207.031,-951.172,0.000,0
1637814693.038,-988.281,-966.797,528.809,-1000.000,0.000,0
1637814693.043,934.082,-996.094,345.703,-876.953,0.000,0
1637814693.035,-431.152,-168.457,-648.926,615.234,0.000,0
1637814693.040,-1000.000,-1000.000,-1000.000,802.734,0.000,0
1637814693.045,541.504,256.836,-340.332,-772.461,0.000,0
1637814693.050,-946.777,-926.758,458.008,-1000.000,0.000,0
1637814693.055,965.820,980.469,438.477,-992.676,0.000,0
1637814693.060,-174.805,-38.574,-514.648,278.320,0.000,0
1637814693.065,-1000.000,-1000.000,-1000.000,-933.594,0.000,0
1637814693.070,199.219,25.391,-422.363,-453.613,0.000,0
1637814693.075,-950.195,-965.820,376.465,-1000.000,0.000,0
1637814693.080,-952.148,-940.918,532.227,-1000.000,0.000,0
1637814693.085,130.371,213.379,-329.102,-54.688,0.000,0
1637814693.090,-1000.000,-1000.000,-1000.000,-817.383,0.000,0
1637814693.079,-8.789,-172.363,-572.266,-163.574,0.000,0
1637814693.084,-965.332,-993.164,364.258,-1000.000,0.000,0
1637814693.089,-933.105,-914.062,673.828,-1000.000,0.000,0
1637814693.094,217.285,206.543,-219.238,-250.977,0.000,0
1637814693.099,-1000.000,-1000.000,-1000.000,-887.695,0.000,0
1637814693.103,-115.723,-113.281,-631.836,-19.043,0.000,0
1637814693.108,991.211,989.258,246.582,-1000.000,0.000,0
1637814693.113,-918.457,-916.992,628.418,-1000.000,0.000,0
1637814693.118,225.098,262.695,-130.859,-266.113,0.000,0
1637814693.123,-1000.000,-1000.000,-1000.000,-827.637,0.000,0
1637814693.128,-198.730,-199.707,-762.207,170.410,0.000,0
1637814693.133,996.094,995.605,126.465,-1000.000,0.000,0
1637814693.119,-916.504,-929.688,658.203,-1000.000,0.000,0
1637814693.124,321.777,445.801,-24.414,-255.859,0.000,0
1637814693.129,-1000.000,-1000.000,-1000.000,-833.984,0.000,0
1637814693.134,-214.355,-374.023,-821.777,175.293,0.000,0
1637814693.138,-983.398,970.215,73.242,-1000.000,0.000,0
1637814693.143,-995.605,-978.516,625.977,-1000.000,0.000,0
1637814693.148,433.594,572.754,-0.977,-277.344,0.000,0
1637814693.153,-1000.000,-957.520,-1000.000,-921.387,0.000,0
1637814693.157,-437.012,-594.727,-848.145,286.621,0.000,0
1637814693.162,944.824,892.090,56.641,-1000.000,0.000,0
1637814693.167,-958.008,-965.820,621.582,-1000.000,0.000,0
1637814693.172,729.492,829.102,172.363,-637.695,0.000,0
1637814693.156,-852.539,-626.465,-858.398,978.516,0.000,0
1637814693.161,-668.457,-907.715,-949.707,516.602,0.000,0
1637814693.166,878.418,643.555,-178.711,-951.172,0.000,0
1637814693.170,-984.863,-965.332,523.926,-1000.000,0.000,0
1637814693.175,920.410,984.375,387.695,-877.930,0.000,0
1637814693.180,-465.332,-245.117,-588.867,619.141,0.000,0
1637814693.184,-981.445,-1000.000,-1000.000,788.086,0.000,0
1637814693.189,589.355,340.332,-329.102,-797.363,0.000,0
1637814693.193,-970.215,-949.707,528.320,-1000.000,0.000,0
1637814693.198,-976.562,-964.355,476.074,-1000.000,0.000,0
1637814693.203,-108.398,18.555,-547.852,196.289,0.000,0
1637814693.207,-1000.000,-1000.000,-1000.000,-942.871,0.000,0
1637814693.191,263.184,100.098,-303.223,-485.352,0.000,0
1637814693.195,-948.242,-955.078,513.184,-1000.000,0.000,0
1637814693.200,-952.637,-944.824,501.465,-1000.000,0.000,0
1637814693.204,118.652,208.496,-385.254,-51.758,0.000,0
1637814693.209,-1000.000,-1000.000,-1000.000,-825.195,0.000,0
1637814693.213,50.781,-114.258,-473.633,-191.895,0.000,0
1637814693.218,-955.566,-978.027,344.238,-1000.000,0.000,0
1637814693.222,-943.848,-929.199,615.723,-1000.000,0.000,0
1637814693.227,235.840,229.492,-179.199,-255.859,0.000,0
1637814693.231,-1000.000,-1000.000,-1000.000,-833.984,0.000,0
1637814693.236,-154.297,-202.148,-666.016,25.879,0.000,0
1637814693.241,-984.863,-998.535,279.297,-1000.000,0.000,0
1637814693.225,-925.781,-917.480,681.152,-1000.000,0.000,0
1637814693.230,226.074,247.559,-145.996,-266.602,0.000,0
1637814693.234,-1000.000,-1000.000,-1000.000,-826.660,0.000,0
1637814693.239,-200.195,-198.730,-682.129,170.410,0.000,0
1637814693.243,998.047,995.605,270.508,-1000.000,0.000,0
1637814693.248,-916.992,-925.293,648.438,-1000.000,0.000,0
1637814693.252,291.016,415.039,-74.219,-256.348,0.000,0
1637814693.257,-1000.000,-1000.000,-1000.000,-830.078,0.000,0
1637814693.261,-203.125,-316.895,-812.988,163.086,0.000,0
1637814693.265,996.582,972.656,39.062,-1000.000,0.000,0
1637814693.270,-931.641,-940.918,641.602,-1000.000,0.000,0
1637814693.274,479.004,600.098,29.297,-409.180,0.000,0
1637814693.261,-1000.000,-1000.000,-1000.000,-886.719,0.000,0
1637814693.265,-345.703,-537.598,-882.324,182.129,0.000,0
1637814693.270,971.680,910.156,-28.809,-1000.000,0.000,0
1637814693.274,-946.289,-952.148,625.000,-1000.000,0.000,0
1637814693.278,646.484,763.672,145.020,-592.285,0.000,0
1637814693.283,-977.539,-772.949,-913.574,-979.004,0.000,0
1637814693.287,-561.035,-790.527,-929.688,411.621,0.000,0
1637814693.291,926.758,769.043,-61.523,-986.816,0.000,0
1637814693.296,-994.141,-988.770,596.680,-1000.000,0.000,0
1637814693.300,897.461,991.211,259.766,-797.852,0.000,0
1637814693.304,-564.941,-282.227,-745.605,774.902,0.000,0
1637814693.309,-847.656,-1000.000,-1000.000,642.578,0.000,0
1637814693.297,747.559,468.262,-289.551,-915.039,0.000,0
1637814693.301,-994.141,-962.402,496.094,-1000.000,0.000,0
1637814693.305,-963.867,-953.613,439.941,-985.352,0.000,0
1637814693.310,-237.793,-53.711,-571.777,442.871,0.000,0
1637814693.314,-1000.000,-1000.000,-991.211,846.680,0.000,0
1637814693.318,599.609,332.520,-274.902,-804.688,0.000,0
1637814693.323,-971.680,-967.773,467.773,-1000.000,0.000,0
1637814693.327,-966.309,-951.660,530.762,-1000.000,0.000,0
1637814693.331,28.320,185.547,-413.574,51.758,0.000,0
1637814693.335,-1000.000,-1000.000,-1000.000,-831.543,0.000,0
1637814693.340,118.164,-83.008,-487.793,-269.531,0.000,0
1637814693.344,-955.078,-974.121,363.770,-1000.000,0.000,0
1637814693.333,-946.289,-932.129,549.805,-1000.000,0.000,0
1637814693.338,237.793,231.445,-296.387,-163.574,0.000,0
1637814693.342,-1000.000,-1000.000,-1000.000,-817.383,0.000,0
1637814693.346,-130.859,-203.613,-636.230,-48.340,0.000,0
1637814693.350,-979.004,-997.070,262.695,-1000.000,0.000,0
1637814693.355,-929.199,-917.969,627.930,-1000.000,0.000,0
1637814693.359,228.027,222.656,-146.484,-271.484,0.000,0
1637814693.363,-1000.000,-1000.000,-1000.000,-825.684,0.000,0
1637814693.367,-203.613,-198.242,-771.484,170.410,0.000,0
1637814693.371,-997.559,997.070,123.535,-1000.000,0.000,0
1637814693.376,-918.457,-922.363,647.461,-1000.000,0.000,0
1637814693.380,222.656,333.008,-104.004,-255.859,0.000,0
1637814693.372,-1000.000,-1000.000,-1000.000,-830.078,0.000,0
1637814693.376,-194.336,-305.664,-797.363,165.039,0.000,0
1637814693.380,992.188,964.355,57.129,-1000.000,0.000,0
1637814693.384,-925.293,-926.758,629.395,-1000.000,0.000,0
1637814693.389,424.805,524.414,-9.766,-355.469,0.000,0
1637814693.393,-1000.000,-1000.000,-1000.000,-863.281,0.000,0
1637814693.397,-321.289,-501.953,-850.098,173.828,0.000,0
1637814693.401,972.168,916.992,-11.230,-1000.000,0.000,0
1637814693.405,-940.430,-952.148,615.234,-1000.000,0.000,0
1637814693.409,603.516,743.164,140.625,-555.176,0.000,0
1637814693.414,-1000.000,-796.387,-921.875,-955.078,0.000,0
1637814693.418,-549.805,-750.977,-937.988,403.320,0.000,0
1637814693.411,916.992,794.922,-113.770,-980.957,0.000,0
1637814693.415,-979.004,-979.004,601.562,-1000.000,0.000,0
1637814693.419,850.586,950.684,267.578,-768.555,0.000,0
1637814693.423,-666.992,-412.109,-785.156,813.477,0.000,0
1637814693.427,-781.250,-969.238,-957.031,636.719,0.000,0
1637814693.431,833.984,613.281,-169.434,-914.062,0.000,0
1637814693.435,-1000.000,-973.633,529.785,-1000.000,0.000,0
1637814693.440,-984.375,-974.121,403.320,-970.703,0.000,0
1637814693.444,-221.680,-70.801,-584.473,406.250,0.000,0
1637814693.448,-1000.000,-1000.000,-1000.000,951.172,0.000,0
1637814693.452,419.922,207.520,-335.938,-623.535,0.000,0
1637814693.456,-955.566,-949.219,452.148,-1000.000,0.000,0
1637814693.450,-962.402,-952.148,516.113,-1000.000,0.000,0
1637814693.454,20.020,142.090,-397.949,61.523,0.000,0
1637814693.458,-1000.000,-1000.000,-1000.000,-842.773,0.000,0
1637814693.462,140.137,-13.184,-479.980,-291.504,0.000,0
1637814693.466,-953.125,-963.379,365.723,-1000.000,0.000,1
1637814693.470,-943.848,-937.988,584.473,-1000.000,0.000,0
1637814693.475,232.422,234.375,-255.859,-160.645,0.000,0
1637814693.479,-1000.000,-1000.000,-1000.000,-823.242,0.000,0
1637814693.483,-60.547,-180.176,-490.723,-77.148,0.000,0
1637814693.487,-962.891,-990.723,406.738,-1000.000,0.000,0
1637814693.491,-938.477,-921.387,615.234,-1000.000,0.000,0
1637814693.495,233.398,224.609,-182.617,-270.508,0.000,0
1637814693.490,-1000.000,-1000.000,-1000.000,-827.637,0.000,0
1637814693.494,-203.613,-197.754,-697.266,135.254,0.000,0
1637814693.498,-997.559,996.094,196.777,-1000.000,0.000,0
1637814693.502,-918.457,-918.945,649.414,-1000.000,0.000,0
1637814693.506,222.656,340.820,-87.891,-258.789,0.000,0
1637814693.510,-1000.000,-1000.000,-1000.000,-829.102,0.000,0
1637814693.514,-194.824,-229.492,-782.227,165.527,0.000,0
1637814693.518,992.676,994.141,117.676,-1000.000,0.000,0
1637814693.522,-921.875,-937.012,669.434,-1000.000,0.000,0
1637814693.526,409.180,525.879,-15.625,-345.215,0.000,0
1637814693.530,-1000.000,-1000.000,-1000.000,-860.352,0.000,0
1637814693.534,-267.578,-431.641,-821.777,172.852,0.000,0
1637814693.530,989.258,948.730,24.414,-1000.000,0.000,0
1637814693.534,-942.871,-956.055,619.141,-1000.000,0.000,0
1637814693.538,571.289,714.844,79.590,-528.809,0.000,0
1637814693.542,-1000.000,-855.469,-991.699,-940.430,0.000,0
1637814693.546,-510.254,-682.129,-906.738,323.242,0.000,0
1637814693.550,921.875,846.680,-64.453,-1000.000,0.000,0
1637814693.554,-957.520,-971.680,579.102,-1000.000,0.000,0
1637814693.558,757.324,891.602,280.273,-711.914,0.000,0
1637814693.562,-780.273,-502.930,-727.539,894.043,0.000,0
1637814693.566,-768.066,-979.980,-989.746,540.527,0.000,0
1637814693.570,784.180,572.266,-245.117,-954.590,0.000,0
1637814693.574,-973.633,-964.355,507.812,-1000.000,0.000,0
1637814693.570,940.430,-988.770,343.262,-916.992,0.000,0
1637814693.574,-396.484,-144.043,-651.367,552.734,0.000,0
1637814693.578,-1000.000,-1000.000,-1000.000,811.523,0.000,0
1637814693.582,503.418,252.930,-371.094,-780.273,0.000,0
1637814693.586,-960.938,-947.754,413.574,-1000.000,0.000,0
1637814693.590,-974.609,-957.520,472.168,-1000.000,0.000,0
1637814693.594,-76.660,82.031,-469.238,181.641,0.000,0
1637814693.598,-1000.000,-1000.000,-1000.000,-923.340,0.000,0
1637814693.602,208.008,31.250,-444.824,-453.125,0.000,0
1637814693.606,-946.777,-960.938,378.418,-1000.000,0.000,0
1637814693.610,-952.637,-941.406,566.895,-1000.000,0.000,0
1637814693.614,132.324,228.027,-298.828,-55.176,0.000,0
1637814693.610,-1000.000,-1000.000,-1000.000,-817.383,0.000,0
1637814693.614,-2.930,-172.852,-593.750,-163.574,0.000,0
1637814693.618,-962.402,-989.746,328.125,-1000.000,0.000,0
1637814693.622,-940.918,-921.875,629.883,-1000.000,0.000,0
1637814693.626,236.328,225.098,-208.496,-269.531,0.000,0
1637814693.630,-1000.000,-1000.000,-1000.000,-831.543,0.000,0
1637814693.634,-203.613,-201.172,-598.633,68.848,0.000,0
1637814693.638,-997.559,999.512,334.473,-1000.000,0.000,0
1637814693.642,-918.457,-917.969,618.652,-1000.000,0.000,0
1637814693.646,222.656,271.973,-129.395,-263.672,0.000,0
1637814693.650,-1000.000,-1000.000,-1000.000,-827.637,0.000,0
1637814693.654,-198.730,-224.121,-781.738,170.410,0.000,0
1637814693.651,996.094,988.770,88.379,-1000.000,0.000,0
1637814693.655,-916.504,-928.223,652.344,-1000.000,0.000,0
1637814693.659,321.777,449.707,-18.066,-255.859,0.000,0
1637814693.663,-1000.000,-1000.000,-1000.000,-830.078,0.000,0
1637814693.667,-207.031,-413.086,-834.473,160.645,0.000,0
1637814693.671,998.047,938.965,29.785,-1000.000,0.000,0
1637814693.675,-939.453,-935.547,670.898,-1000.000,0.000,0
1637814693.679,521.484,631.836,52.246,-458.496,0.000,0
1637814693.683,-1000.000,-948.730,-1000.000,-903.320,0.000,0
1637814693.687,-436.523,-641.602,-870.117,288.086,0.000,0
1637814693.691,947.266,856.445,-39.551,-1000.000,0.000,0
1637814693.695,-959.473,-964.844,591.309,-1000.000,0.000,0
1637814693.693,734.863,854.980,189.453,-637.695,0.000,0
1637814693.697,-846.680,-589.355,-853.516,978.516,0.000,0
1637814693.701,-669.922,-904.785,-962.891,516.602,0.000,0
1637814693.705,880.371,661.621,-193.848,-951.172,0.000,0
1637814693.709,-990.234,-974.121,535.645,-1000.000,0.000,0
1637814693.713,937.012,-996.582,354.004,-876.953,0.000,0
1637814693.717,-439.453,-198.730,-652.832,615.234,0.000,0
1637814693.721,-984.375,-1000.000,-1000.000,804.199,0.000,0
1637814693.725,589.844,341.309,-321.777,-779.785,0.000,0
1637814693.729,-971.191,-949.707,505.371,-1000.000,0.000,0
1637814693.733,-975.098,-962.402,487.305,-1000.000,0.000,0
1637814693.737,-90.820,44.922,-506.348,190.430,0.000,0
1637814693.736,-1000.000,-1000.000,-1000.000,-922.363,0.000,0
1637814693.740,235.840,81.055,-407.227,-453.613,0.000,0
1637814693.743,-947.754,-957.031,409.180,-1000.000,0.000,0
1637814693.747,-946.777,-938.477,526.855,-1000.000,0.000,0
1637814693.751,111.328,193.848,-367.676,-36.621,0.000,0
1637814693.755,-1000.000,-1000.000,-1000.000,-874.023,0.000,0
1637814693.759,102.539,-57.129,-494.629,-251.465,0.000,0
1637814693.763,-970.215,-996.094,346.680,-1000.000,0.000,0
1637814693.767,-943.359,-924.805,614.258,-1000.000,0.000,0
1637814693.771,239.746,229.492,-185.547,-271.973,0.000,0
1637814693.775,-1000.000,-1000.000,-1000.000,-831.543,0.000,0
1637814693.779,-203.613,-202.637,-689.453,68.848,0.000,0
1637814693.778,-997.559,-998.047,232.422,-1000.000,0.000,0
1637814693.782,-918.457,-917.969,639.648,-1000.000,0.000,0
1637814693.786,222.656,239.258,-163.574,-263.672,0.000,0
1637814693.790,-1000.000,-1000.000,-1000.000,-827.637,0.000,0
1637814693.794,-199.707,-197.266,-726.562,170.410,0.000,0
1637814693.798,997.559,995.117,173.340,-1000.000,0.000,0
1637814693.802,-916.992,-926.270,641.113,-1000.000,0.000,0
1637814693.806,297.363,413.574,-62.012,-255.859,0.000,0
1637814693.809,-1000.000,-1000.000,-1000.000,-829.590,0.000,0
1637814693.813,-203.613,-345.215,-817.383,160.645,0.000,0
1637814693.817,996.582,961.914,36.621,-1000.000,0.000,0
1637814693.821,-936.035,-938.965,653.320,-1000.000,0.000,0
1637814693.821,506.348,610.840,40.039,-456.055,0.000,0
1637814693.825,-1000.000,-985.352,-1000.000,-911.133,0.000,0
1637814693.829,-419.434,-567.871,-888.672,277.344,0.000,0
1637814693.832,991.211,920.410,16.602,-1000.000,0.000,0
1637814693.836,956.543,-998.535,527.832,-944.336,0.000,0
1637814693.840,458.496,673.828,-13.184,-350.586,0.000,0
1637814693.844,-939.453,-735.840,-880.859,968.262,0.000,0
1637814693.848,-616.211,-828.613,-921.875,473.633,0.000,0
1637814693.852,887.207,719.238,-65.430,-955.566,0.000,0
1637814693.856,-986.328,-979.980,584.473,-1000.000,0.000,0
1637814693.860,900.879,986.816,299.805,-856.445,0.000,0
1637814693.864,-516.113,-263.672,-703.613,671.387,0.000,0
1637814693.864,-937.012,-1000.000,-1000.000,718.750,0.000,0
1637814693.867,635.254,395.996,-308.594,-857.910,0.000,0
1637814693.871,-971.191,-950.684,464.355,-1000.000,0.000,0
1637814693.875,-989.746,-970.215,440.918,-1000.000,0.000,0
1637814693.879,-167.969,-14.160,-527.344,291.504,0.000,0
1637814693.883,-1000.000,-1000.000,-1000.000,994.629,0.000,0
1637814693.887,275.391,114.746,-413.086,-568.848,0.000,0
1637814693.891,-942.383,-954.102,454.590,-1000.000,0.000,0
1637814693.895,-965.820,-948.730,546.387,-1000.000,0.000,0
1637814693.899,26.367,183.105,-409.180,17.578,0.000,0
1637814693.903,-1000.000,-1000.000,-1000.000,-831.055,0.000,0
1637814693.906,52.734,-119.629,-526.855,-247.070,0.000,0
1637814693.906,-963.379,-982.422,332.520,-1000.000,0.000,0
1637814693.910,-940.918,-927.246,568.848,-1000.000,0.000,0
1637814693.914,235.840,228.516,-268.555,-178.711,0.000,0
1637814693.918,-1000.000,-1000.000,-1000.000,-821.777,0.000,0
1637814693.922,-159.180,-203.613,-630.859,-45.898,0.000,0
1637814693.926,-985.840,-997.070,299.316,-1000.000,0.000,0
1637814693.930,-924.805,-917.969,633.301,-1000.000,0.000,0
1637814693.934,226.074,223.145,-132.812,-270.996,0.000,0
1637814693.938,-1000.000,-1000.000,-1000.000,-825.195,0.000,0
1637814693.941,-203.613,-196.777,-773.926,170.410,0.000,0
1637814693.945,-998.047,995.605,133.301,-1000.000,0.000,0
1637814693.949,-918.457,-922.852,654.785,-1000.000,0.000,0
1637814693.949,222.656,366.211,-87.402,-256.348,0.000,0
1637814693.953,-1000.000,-1000.000,-1000.000,-830.078,0.000,0
1637814693.957,-194.336,-316.895,-805.176,165.039,0.000,0
1637814693.961,992.188,964.355,54.199,-1000.000,0.000,0
1637814693.965,-925.781,-929.688,650.391,-1000.000,0.000,0
1637814693.969,425.293,544.434,10.742,-355.469,0.000,0
1637814693.973,-1000.000,-1000.000,-1000.000,-863.770,0.000,0
1637814693.977,-330.078,-532.227,-861.816,173.340,0.000,0
1637814693.980,968.750,904.785,-30.273,-1000.000,0.000,0
1637814693.984,-938.477,-951.172,617.676,-1000.000,0.000,0
1637814693.988,603.027,752.441,136.230,-555.176,0.000,0
1637814693.992,-1000.000,-766.113,-928.223,-955.078,0.000,0
1637814693.992,-550.293,-802.734,-937.988,403.320,0.000,0
1637814693.996,916.992,742.188,-111.816,-980.957,0.000,0
1637814694.000,-977.051,-967.285,590.332,-1000.000,0.000,0
1637814694.004,843.262,939.941,265.625,-768.555,0.000,0
1637814694.008,-648.926,-364.258,-759.766,813.477,0.000,0
1637814694.012,-837.402,-1000.000,-1000.000,636.719,0.000,0
1637814694.016,746.094,422.852,-145.996,-914.062,0.000,0
1637814694.020,-989.746,-953.613,574.219,-1000.000,0.000,0
1637814694.023,-984.863,-974.121,388.184,-970.703,0.000,0
1637814694.027,-223.633,-58.594,-555.664,406.250,0.000,0
1637814694.031,-1000.000,-1000.000,-1000.000,951.172,0.000,0
1637814694.035,419.922,170.898,-373.535,-623.535,0.000,0
1637814694.036,-955.078,-952.148,428.223,-1000.000,0.000,0
1637814694.039,-963.379,-947.754,529.297,-1000.000,0.000,0
1637814694.043,21.484,166.016,-384.766,57.617,0.000,0
1637814694.047,-1000.000,-1000.000,-1000.000,-831.543,0.000,0
1637814694.051,129.883,-28.809,-471.191,-269.531,0.000,0
1637814694.055,-953.613,-963.867,419.922,-1000.000,0.000,0
1637814694.059,-944.824,-937.500,588.867,-1000.000,0.000,0
1637814694.063,234.863,233.887,-282.227,-163.574,0.000,0
1637814694.066,-1000.000,-1000.000,-1000.000,-817.871,0.000,0
1637814694.070,-92.285,-187.988,-498.047,-48.340,0.000,0
1637814694.074,-968.750,-993.164,411.133,-1000.000,0.000,0
1637814694.078,-934.570,-920.410,609.863,-1000.000,0.000,0
1637814694.080,230.957,224.121,-180.176,-270.996,0.000,0
1637814694.084,-1000.000,-1000.000,-1000.000,-825.195,0.000,0
1637814694.087,-203.613,-197.266,-731.445,170.410,0.000,0
1637814694.091,-998.047,996.094,158.691,-1000.000,0.000,0
1637814694.095,-918.457,-919.922,654.297,-1000.000,0.000,0
1637814694.099,222.656,348.145,-67.383,-256.348,0.000,0
1637814694.103,-1000.000,-1000.000,-1000.000,-830.078,0.000,0
1637814694.107,-194.336,-256.348,-791.992,165.039,0.000,0
1637814694.111,992.188,985.840,97.656,-1000.000,0.000,0
1637814694.114,-925.293,-935.059,664.551,-1000.000,0.000,0
1637814694.118,424.805,530.762,-3.906,-355.469,0.000,0
1637814694.122,-1000.000,-1000.000,-1000.000,-863.770,0.000,0
1637814694.124,-321.777,-465.820,-831.543,173.340,0.000,0
1637814694.128,972.168,935.059,34.180,-1000.000,0.000,0
1637814694.132,-938.965,-955.078,639.160,-1000.000,0.000,0
1637814694.135,595.703,730.957,94.238,-554.688,0.000,0
1637814694.139,-1000.000,-824.219,-972.656,-954.590,0.000,0
1637814694.143,-547.852,-716.309,-906.250,384.277,0.000,0
1637814694.147,915.039,823.242,-70.312,-989.258,0.000,0
1637814694.151,-971.191,-976.074,559.082,-1000.000,0.000,0
1637814694.155,824.219,921.875,308.594,-770.020,0.000,0
1637814694.159,-678.223,-440.430,-684.082,817.383,0.000,0
1637814694.162,-818.359,-1000.000,-996.582,608.887,0.000,0
1637814694.166,757.324,542.480,-239.258,-931.641,0.000,0
1637814694.168,-983.887,-963.379,529.785,-1000.000,0.000,0
1637814694.172,991.211,-979.492,370.117,-977.051,0.000,0
1637814694.176,-276.855,-102.051,-629.395,419.434,0.000,0
1637814694.180,-1000.000,-1000.000,-1000.000,904.785,0.000,0
1637814694.184,439.453,223.633,-332.520,-682.617,0.000,0
1637814694.187,-954.102,-947.754,453.125,-1000.000,0.000,0
1637814694.191,-970.215,-955.078,496.582,-1000.000,0.000,0
1637814694.195,-23.438,111.816,-429.688,87.402,0.000,0
1637814694.199,-1000.000,-1000.000,-1000.000,-875.000,0.000,0
1637814694.203,147.461,-2.441,-477.539,-352.539,0.000,0
1637814694.207,-950.684,-964.355,363.770,-1000.000,0.000,0
1637814694.211,-949.707,-938.477,594.238,-1000.000,0.000,0
1637814694.212,177.734,233.887,-266.602,-127.930,0.000,0
1637814694.216,-1000.000,-1000.000,-1000.000,-825.684,0.000,0
1637814694.220,-73.730,-185.547,-601.562,-124.023,0.000,0
1637814694.224,-973.145,-992.676,302.734,-1000.000,0.000,0
1637814694.228,-927.246,-920.410,633.789,-1000.000,0.000,0
1637814694.232,213.379,224.609,-195.312,-250.000,0.000,0
1637814694.236,-1000.000,-1000.000,-1000.000,-887.695,0.000,0
1637814694.239,-115.723,-200.684,-559.570,-7.812,0.000,2
1637814694.243,991.211,999.512,338.867,-1000.000,0.000,0
1637814694.247,-918.457,-918.945,621.582,-1000.000,0.000,0
1637814694.251,224.609,277.832,-120.605,-265.625,0.000,0
1637814694.255,-1000.000,-1000.000,-1000.000,-827.637,0.000,0
1637814694.257,-198.730,-237.305,-784.180,168.457,0.000,0
1637814694.261,996.094,984.375,79.102,-1000.000,0.000,0
1637814694.264,-919.922,-927.734,646.973,-1000.000,0.000,0
1637814694.268,326.172,460.938,-8.301,-293.945,0.000,0
1637814694.272,-1000.000,-1000.000,-1000.000,-842.773,0.000,0
1637814694.276,-272.461,-436.035,-840.332,166.504,0.000,0
1637814694.280,976.074,931.152,21.973,-1000.000,0.000,0
1637814694.284,-930.176,-936.035,654.785,-1000.000,0.000,0
1637814694.288,517.090,646.973,53.711,-467.773,0.000,0
1637814694.291,-1000.000,-927.246,-1000.000,-908.691,0.000,0
1637814694.295,-481.445,-669.434,-868.652,290.039,0.000,0
1637814694.299,924.316,838.379,-25.879,-1000.000,0.000,0
1637814694.302,-950.684,-962.891,595.215,-1000.000,0.000,0
1637814694.306,728.516,861.328,203.613,-637.207,0.000,0
1637814694.310,-836.914,-553.711,-835.938,978.516,0.000,0
1637814694.313,-707.520,-964.844,-970.215,516.602,0.000,0
1637814694.317,839.844,582.520,-216.797,-951.172,0.000,0
1637814694.321,-981.934,-961.426,502.930,-1000.000,0.000,0
1637814694.325,934.570,997.559,410.156,-876.953,0.000,0
1637814694.329,-437.500,-181.152,-553.711,615.234,0.000,0
1637814694.333,-992.188,-1000.000,-1000.000,804.199,0.000,0
1637814694.337,578.613,254.395,-346.680,-779.785,0.000,0
1637814694.340,-969.238,-947.266,453.613,-1000.000,0.000,0
1637814694.344,-975.098,-960.938,444.336,-1000.000,0.000,0
1637814694.347,-91.309,55.176,-500.977,190.430,0.000,0
1637814694.351,-1000.000,-1000.000,-1000.000,-922.852,0.000,0
1637814694.355,236.328,31.738,-437.012,-453.613,0.000,0
1637814694.359,-945.801,-962.891,387.695,-1000.000,0.000,0
1637814694.362,-953.613,-940.430,553.223,-1000.000,0.000,0
1637814694.366,129.883,218.750,-335.449,-54.688,0.000,0
1637814694.370,-1000.000,-1000.000,-1000.000,-817.383,0.000,0
1637814694.374,14.648,-164.551,-536.621,-163.574,0.000,0
1637814694.378,-958.984,-988.770,318.848,-1000.000,0.000,0
1637814694.382,-943.359,-922.363,630.371,-1000.000,0.000,0
1637814694.386,237.793,225.586,-155.762,-269.531,0.000,0
1637814694.389,-1000.000,-1000.000,-1000.000,-831.543,0.000,0
1637814694.391,-203.613,-201.660,-711.426,68.848,0.000,0
1637814694.395,-998.047,-999.512,214.355,-1000.000,0.000,0
1637814694.399,-918.457,-918.457,653.320,-1000.000,0.000,0
1637814694.403,222.656,261.230,-145.508,-263.672,0.000,0
1637814694.407,-1000.000,-1000.000,-1000.000,-827.637,0.000,0
1637814694.411,-198.730,-217.773,-760.742,170.410,0.000,0
1637814694.414,996.094,989.746,121.094,-1000.000,0.000,0
1637814694.418,-916.504,-926.758,654.297,-1000.000,0.000,0
1637814694.422,322.266,443.848,-41.016,-256.348,0.000,0
1637814694.426,-1000.000,-1000.000,-1000.000,-830.078,0.000,0
1637814694.430,-207.031,-369.629,-823.242,160.645,0.000,0
1637814694.434,998.535,958.008,20.508,-1000.000,0.000,0
1637814694.437,-939.453,-940.918,638.672,-1000.000,0.000,0
1637814694.440,521.484,626.465,54.199,-458.496,0.000,0
1637814694.444,-1000.000,-966.797,-1000.000,-903.320,0.000,0
1637814694.448,-435.059,-597.656,-883.789,288.086,0.000,0
1637814694.452,939.941,875.000,-57.129,-1000.000,0.000,0
1637814694.456,-939.453,-931.152,622.070,-1000.000,0.000,0
1637814694.460,667.969,730.957,191.895,-637.207,0.000,0
1637814694.463,-943.359,-790.039,-908.691,978.516,0.000,0
1637814694.467,-655.762,-893.066,-932.617,516.602,0.000,0
1637814694.471,875.000,641.113,-78.613,-951.172,0.000,0
1637814694.475,-979.980,-965.820,561.035,-1000.000,0.000,0
1637814694.479,898.438,973.145,295.410,-876.953,0.000,0
1637814694.482,-499.512,-255.371,-696.289,615.234,0.000,0
1637814694.486,-976.562,-1000.000,-1000.000,804.199,0.000,0
1637814694.489,585.449,293.945,-324.707,-779.785,0.000,0
1637814694.493,-963.867,-941.895,448.730,-1000.000,0.000,0
1637814694.497,-991.211,-974.121,457.520,-1000.000,0.000,0
1637814694.501,-151.367,-19.531,-487.305,190.430,0.000,0
1637814694.505,-1000.000,-1000.000,-1000.000,-922.852,0.000,0
1637814694.509,235.840,57.617,-441.895,-453.125,0.000,0
1637814694.512,-941.406,-961.426,426.758,-1000.000,0.000,0
1637814694.516,-963.379,-944.824,547.363,-1000.000,0.000,0
1637814694.520,53.711,182.129,-395.996,-46.387,0.000,0
1637814694.524,-1000.000,-1000.000,-1000.000,-816.406,0.000,0
1637814694.527,23.926,-154.297,-524.902,-162.598,0.000,0
1637814694.531,-964.355,-990.723,325.684,-1000.000,0.000,0
1637814694.535,-941.895,-922.363,574.219,-1000.000,0.000,0
1637814694.538,237.793,226.074,-242.676,-240.723,0.000,0
1637814694.542,-1000.000,-1000.000,-1000.000,-824.707,0.000,0
1637814694.546,-203.613,-203.613,-651.367,59.082,0.000,0
1637814694.550,-998.047,-997.070,252.441,-1000.000,0.000,0
1637814694.554,-918.457,-917.969,643.555,-1000.000,0.000,0
1637814694.558,222.656,223.633,-101.562,-264.160,0.000,0
1637814694.561,-1000.000,-1000.000,-1000.000,-827.148,0.000,0
1637814694.565,-204.102,-205.566,-778.320,170.410,0.000,0
1637814694.569,-997.559,993.652,123.535,-1000.000,0.000,0
1637814694.572,-918.457,-923.340,648.438,-1000.000,0.000,0
1637814694.576,222.656,352.051,-74.219,-256.348,0.000,0
1637814694.580,-1000.000,-1000.000,-1000.000,-830.078,0.000,0
1637814694.583,-193.848,-356.934,-812.988,162.598,0.000,0
1637814694.587,992.188,945.801,30.762,-1000.000,0.000,0
1637814694.591,-929.688,-923.340,644.531,-1000.000,0.000,0
1637814694.595,439.941,546.875,38.086,-406.738,0.000,0
1637814694.599,-1000.000,-1000.000,-1000.000,-885.254,0.000,0
1637814694.603,-397.461,-555.664,-866.699,198.242,0.000,0
1637814694.606,945.801,895.020,-30.762,-1000.000,0.000,0
1637814694.610,-941.406,-954.102,612.793,-1000.000,0.000,0
1637814694.614,655.762,779.297,170.898,-592.773,0.000,0
1637814694.617,-942.871,-722.656,-887.695,-984.863,0.000,0
1637814694.621,-592.773,-829.590,-958.496,423.340,0.000,0
1637814694.625,900.391,714.844,-85.449,-1000.000,0.000,0
1637814694.629,-969.727,-956.055,520.996,-1000.000,0.000,0
1637814694.632,843.750,917.969,162.109,-599.609,0.000,0
1637814694.636,-643.555,-390.625,-710.449,835.938,0.000,0
1637814694.640,-841.309,-1000.000,-996.094,629.883,0.000,0
1637814694.644,744.141,435.059,-145.996,-910.645,0.000,0
1637814694.648,-994.629,-958.008,561.523,-1000.000,0.000,0
1637814694.652,-973.633,-968.750,404.297,-987.305,0.000,0
1637814694.655,-181.152,-19.043,-530.273,375.488,0.000,0
1637814694.659,-1000.000,-1000.000,-1000.000,953.125,0.000,0
1637814694.662,417.969,145.996,-378.906,-623.047,0.000,0
1637814694.666,-955.078,-951.660,435.547,-1000.000,0.000,0
1637814694.670,-960.938,-948.242,557.617,-1000.000,0.000,0
1637814694.674,43.457,186.035,-354.980,57.617,0.000,0
1637814694.678,-1000.000,-1000.000,-1000.000,-831.543,0.000,0
1637814694.681,127.441,-75.195,-473.633,-269.531,0.000,0
1637814694.685,-951.660,-971.191,425.293,-1000.000,0.000,0
1637814694.689,-946.289,-933.594,618.652,-1000.000,0.000,0
1637814694.693,235.840,231.934,-252.441,-163.574,0.000,0
1637814694.697,-1000.000,-1000.000,-1000.000,-817.383,0.000,0
1637814694.701,-102.539,-203.613,-588.379,-48.340,0.000,0
1637814694.704,-971.191,-997.070,309.570,-1000.000,0.000,0
1637814694.707,-933.105,-917.969,620.605,-1000.000,0.000,0
1637814694.711,230.469,223.145,-170.898,-271.484,0.000,0
1637814694.715,-1000.000,-1000.000,-1000.000,-825.195,0.000,0
1637814694.719,-203.613,-197.266,-743.652,170.410,0.000,0
1637814694.723,-997.559,996.094,129.395,-1000.000,0.000,0
1637814694.726,-918.457,-921.387,657.715,-1000.000,0.000,0
1637814694.730,222.656,354.492,-20.508,-255.859,0.000,0
1637814694.734,-1000.000,-1000.000,-1000.000,-829.590,0.000,0
1637814694.738,-194.336,-287.598,-807.129,165.039,0.000,0
1637814694.742,992.188,974.609,85.938,-1000.000,0.000,0
1637814694.746,-925.293,-932.617,660.156,-1000.000,0.000,0
1637814694.749,424.805,536.621,6.348,-355.469,0.000,0
1637814694.752,-1000.000,-1000.000,-1000.000,-863.770,0.000,0
1637814694.756,-321.777,-514.160,-845.703,173.828,0.000,0
1637814694.760,972.168,911.621,5.371,-1000.000,0.000,0
1637814694.764,-939.941,-949.219,614.746,-1000.000,0.000,0
1637814694.768,603.516,736.816,139.648,-555.176,0.000,0
1637814694.771,-1000.000,-794.434,-908.203,-955.566,0.000,0
1637814694.775,-549.805,-774.414,-934.082,403.320,0.000,0
1637814694.779,916.992,766.113,-104.980,-980.957,0.000,0
1637814694.783,-977.051,-968.750,582.520,-1000.000,0.000,0
1637814694.787,843.262,931.152,288.574,-768.555,0.000,0
1637814694.791,-648.926,-400.391,-733.398,813.477,0.000,0
1637814694.794,-837.402,-1000.000,-1000.000,636.719,0.000,0
1637814694.798,746.094,480.469,-249.023,-914.062,0.000,0
1637814694.802,-989.258,-957.520,539.551,-1000.000,0.000,0
1637814694.806,-984.863,-978.516,395.996,-970.703,0.000,0
1637814694.810,-223.633,-78.125,-594.727,406.250,0.000,0
1637814694.813,-1000.000,-1000.000,-1000.000,951.172,0.000,0
1637814694.817,419.922,176.758,-330.078,-623.535,0.000,0
1637814694.821,-954.590,-949.707,463.867,-1000.000,0.000,0
1637814694.825,-964.355,-953.125,491.211,-1000.000,0.000,0
1637814694.829,17.090,129.883,-426.270,57.617,0.000,0
1637814694.833,-1000.000,-1000.000,-1000.000,-831.543,0.000,0
1637814694.836,129.395,-40.039,-476.074,-269.531,0.000,0
1637814694.840,-952.637,-969.727,366.211,-1000.000,0.000,0
1637814694.844,-946.777,-935.059,595.703,-1000.000,0.000,0
1637814694.848,218.750,233.398,-249.023,-163.574,0.000,0
1637814694.851,-1000.000,-1000.000,-1000.000,-817.383,0.000,0
1637814694.855,-99.609,-196.289,-602.539,-48.340,0.000,0
1637814694.859,-972.656,-995.117,315.430,-1000.000,0.000,0
1637814694.863,-932.617,-918.945,631.836,-1000.000,0.000,0
1637814694.867,230.469,223.633,-180.176,-270.996,0.000,0
1637814694.871,-1000.000,-1000.000,-1000.000,-825.684,0.000,0
1637814694.874,-204.102,-199.707,-621.094,165.039,0.000,0
1637814694.878,-998.047,998.535,314.941,-1000.000,0.000,0
1637814694.882,-918.457,-919.922,627.441,-1000.000,0.000,0
1637814694.886,222.168,302.734,-107.422,-256.348,0.000,0
1637814694.890,-1000.000,-1000.000,-1000.000,-829.590,0.000,0
1637814694.893,-195.801,-260.254,-786.621,166.016,0.000,0
1637814694.897,993.652,978.516,88.379,-1000.000,0.000,0
1637814694.901,-923.340,-928.223,649.414,-1000.000,0.000,0
1637814694.905,390.625,493.652,12.695,-338.867,0.000,0
1637814694.909,-1000.000,-1000.000,-1000.000,-857.910,0.000,0
1637814694.913,-306.641,-462.402,-811.523,171.875,0.000,0
1637814694.916,972.656,927.246,91.309,-1000.000,0.000,0
1637814694.920,-936.523,-945.312,660.156,-1000.000,0.000,0
1637814694.924,579.102,700.195,123.047,-531.738,0.000,0
1637814694.928,-1000.000,-863.770,-959.961,-942.383,0.000,0
1637814694.932,-517.578,-699.219,-884.277,350.586,0.000,0
1637814694.935,925.781,830.078,-32.715,-997.559,0.000,0
1637814694.939,-972.168,-978.516,591.309,-1000.000,0.000,0
1637814694.943,814.941,925.293,255.859,-731.445,0.000,0
1637814694.947,-725.098,-509.277,-825.195,868.164,0.000,0
1637814694.951,-731.934,-880.371,-898.926,557.129,0.000,0
1637814694.954,860.352,760.254,-1.953,-952.148,0.000,0
1637814694.958,997.559,-984.863,540.039,-1000.000,0.000,0
1637814694.962,-1000.000,-980.469,434.570,-945.801,0.000,0
1637814694.966,-299.805,-110.352,-509.766,506.348,0.000,0
1637814694.970,-1000.000,-1000.000,-1000.000,817.383,0.000,0
1637814694.973,545.898,264.648,-316.406,-783.203,0.000,0
1637814694.977,-969.238,-949.707,471.191,-1000.000,0.000,0
1637814694.981,-961.914,-954.102,483.887,-1000.000,0.000,0
1637814694.985,-19.043,114.258,-438.477,140.625,0.000,0
1637814694.989,-1000.000,-1000.000,-1000.000,-926.270,0.000,0
1637814694.992,223.633,33.203,-406.738,-450.195,0.000,0
1637814694.996,-946.777,-958.496,405.762,-1000.000,0.000,0
1637814695.000,-949.219,-941.895,573.242,-1000.000,0.000,0
1637814695.004,190.430,236.328,-264.160,-65.430,0.000,0
1637814695.008,-1000.000,-1000.000,-1000.000,-819.336,0.000,0
1637814695.011,5.371,-167.969,-545.898,-162.109,0.000,0
1637814695.015,-954.590,-987.793,336.914,-1000.000,0.000,0
1637814695.019,-944.824,-922.852,639.648,-1000.000,0.000,0
1637814695.023,237.793,225.586,-171.387,-269.531,0.000,0
1637814695.026,-1000.000,-1000.000,-1000.000,-831.543,0.000,0
1637814695.030,-203.613,-199.707,-659.180,68.848,0.000,0
1637814695.034,-998.047,998.535,286.621,-1000.000,0.000,0
1637814695.038,-918.457,-917.480,656.738,-1000.000,0.000,0
1637814695.042,222.656,294.922,-112.793,-263.672,0.000,0
1637814695.046,-1000.000,-1000.000,-1000.000,-827.637,0.000,0
1637814695.049,-197.754,-208.984,-696.289,170.410,0.000,0
1637814695.053,995.117,996.094,254.395,-1000.000,0.000,0
1637814695.057,-917.480,-932.617,645.996,-1000.000,0.000,0
1637814695.061,338.867,480.957,-34.668,-255.859,0.000,0
1637814695.065,-1000.000,-1000.000,-1000.000,-829.590,0.000,0
1637814695.069,-209.961,-388.184,-820.801,161.133,0.000,0
1637814695.072,999.512,957.520,35.156,-1000.000,0.000,0
1637814695.076,-939.941,-948.242,645.996,-1000.000,0.000,0
1637814695.080,521.484,666.016,113.281,-458.496,0.000,0
1637814695.083,-1000.000,-927.246,-984.375,-903.320,0.000,0
1637814695.087,-436.523,-616.699,-891.602,288.086,0.000,0
1637814695.091,947.266,890.137,-32.715,-1000.000,0.000,0
1637814695.095,-959.473,-976.074,640.137,-1000.000,0.000,0
1637814695.099,734.863,872.559,231.934,-637.207,0.000,0
1637814695.103,-846.680,-562.012,-845.703,978.516,0.000,0
1637814695.106,-669.922,-919.922,-941.895,516.602,0.000,0
1637814695.110,880.371,646.484,-149.414,-951.172,0.000,0
1637814695.114,-990.234,-971.680,534.668,-1000.000,0.000,0
1637814695.118,937.012,-996.094,329.590,-876.953,0.000,0
1637814695.121,-439.453,-188.965,-666.504,615.234,0.000,1
1637814695.125,-984.375,-1000.000,-1000.000,804.199,0.000,0
1637814695.129,590.332,319.824,-319.824,-779.785,0.000,0
1637814695.133,-970.703,-948.730,443.359,-1000.000,0.000,0
1637814695.137,-975.098,-960.938,524.414,-1000.000,0.000,0
1637814695.140,-90.820,52.734,-404.785,190.430,0.000,0
1637814695.144,-1000.000,-1000.000,-1000.000,-922.363,0.000,0
1637814695.148,236.328,77.148,-395.508,-453.613,0.000,0
1637814695.152,-945.801,-956.055,450.684,-1000.000,0.000,0
1637814695.156,-953.613,-944.336,549.316,-1000.000,0.000,0
1637814695.160,129.883,220.215,-356.445,-55.176,0.000,0
1637814695.164,-1000.000,-1000.000,-1000.000,-817.383,0.000,0
1637814695.167,14.648,-143.066,-518.066,-163.574,0.000,0
1637814695.171,-958.984,-983.887,343.750,-1000.000,0.000,0
1637814695.175,-943.359,-925.781,604.980,-1000.000,0.000,0
1637814695.179,237.793,227.539,-213.867,-269.531,0.000,0
1637814695.183,-1000.000,-1000.000,-1000.000,-831.543,0.000,0
1637814695.187,-203.613,-201.660,-640.137,68.848,0.000,0
1637814695.190,-998.047,-999.512,267.578,-1000.000,0.000,0
1637814695.194,-918.457,-917.480,646.973,-1000.000,0.000,0
1637814695.198,222.656,254.395,-91.309,-263.672,0.000,0
1637814695.202,-1000.000,-1000.000,-1000.000,-827.637,0.000,0
1637814695.206,-199.219,-199.707,-761.719,170.410,0.000,0
1637814695.210,996.582,996.094,157.227,-1000.000,0.000,0
1637814695.214,-916.992,-928.711,656.250,-1000.000,0.000,0
1637814695.217,311.035,423.340,-63.477,-255.859,0.000,0
1637814695.221,-1000.000,-1000.000,-1000.000,-830.078,0.000,0
1637814695.225,-206.055,-383.301,-806.152,160.645,0.000,0
1637814695.229,997.559,946.289,61.523,-1000.000,0.000,0
1637814695.233,-937.500,-931.152,640.625,-1000.000,0.000,0
1637814695.237,500.977,595.215,27.344,-457.520,0.000,0
1637814695.240,-1000.000,-993.164,-1000.000,-903.809,0.000,0
1637814695.244,-432.617,-599.609,-885.254,275.879,0.000,0
1637814695.248,944.336,877.930,-62.500,-1000.000,0.000,0
1637814695.252,-954.102,-959.961,604.492,-1000.000,0.000,0
1637814695.256,712.891,817.383,173.340,-638.184,0.000,0
1637814695.260,-871.094,-654.297,-877.930,979.980,0.000,0
1637814695.263,-659.668,-875.977,-958.496,499.512,0.000,0
1637814695.267,881.348,682.617,-172.363,-958.008,0.000,0
1637814695.271,-988.281,-972.168,528.809,-1000.000,0.000,0
1637814695.275,928.223,988.281,290.527,-863.281,0.000,0
1637814695.279,-466.797,-249.023,-689.941,646.973,0.000,0
1637814695.283,-952.637,-1000.000,-1000.000,763.184,0.000,0
1637814695.286,627.441,374.512,-180.664,-815.430,0.000,0
1637814695.290,-976.562,-952.148,543.457,-1000.000,0.000,0
1637814695.294,-973.145,-964.355,415.039,-1000.000,0.000,0
1637814695.298,-114.258,16.602,-520.508,250.000,0.000,0
1637814695.302,-1000.000,-1000.000,-1000.000,-963.867,0.000,0
1637814695.306,292.480,115.234,-402.832,-508.301,0.000,0
1637814695.310,-948.242,-953.125,404.785,-1000.000,0.000,0
1637814695.313,-956.055,-946.777,564.941,-1000.000,0.000,0
1637814695.317,100.586,203.125,-333.496,-1.465,0.000,0
1637814695.321,-1000.000,-1000.000,-1000.000,-823.730,0.000,0
1637814695.325,48.828,-110.352,-495.605,-211.914,0.000,0
1637814695.329,-957.520,-978.027,408.691,-1000.000,0.000,0
1637814695.332,-944.336,-929.199,636.230,-1000.000,0.000,0
1637814695.336,237.305,229.492,-240.234,-208.496,0.000,0
1637814695.340,-1000.000,-1000.000,-1000.000,-823.730,0.000,0
1637814695.344,-174.316,-203.125,-620.605,0.977,0.000,0
1637814695.348,-989.746,-997.559,271.484,-1000.000,0.000,0
1637814695.352,-922.852,-917.969,623.047,-1000.000,0.000,0
1637814695.355,224.609,229.492,-159.668,-268.066,0.000,0
1637814695.359,-1000.000,-1000.000,-1000.000,-826.172,0.000,0
1637814695.363,-201.660,-196.777,-751.465,170.410,0.000,0
1637814695.367,999.512,995.117,127.441,-1000.000,0.000,0
1637814695.371,-917.969,-923.340,659.668,-1000.000,0.000,0
1637814695.375,265.137,387.207,-7.324,-256.348,0.000,0
1637814695.378,-1000.000,-1000.000,-1000.000,-829.590,0.000,0
1637814695.382,-199.219,-307.617,-813.477,165.039,0.000,0
1637814695.386,994.629,972.168,71.289,-1000.000,0.000,0
1637814695.390,-930.176,-938.965,645.996,-1000.000,0.000,0
1637814695.394,475.098,591.309,22.461,-355.469,0.000,0
1637814695.398,-1000.000,-1000.000,-1000.000,-863.770,0.000,0
1637814695.401,-331.543,-522.949,-847.168,173.828,0.000,0
1637814695.405,981.445,925.293,15.137,-1000.000,0.000,0
1637814695.409,-958.496,-972.168,622.070,-1000.000,0.000,0
1637814695.413,677.246,817.383,184.570,-555.176,0.000,0
1637814695.417,-931.641,-697.266,-876.465,-955.566,0.000,0
1637814695.421,-564.453,-780.273,-936.035,401.367,0.000,0
1637814695.424,916.504,781.250,-94.727,-974.121,0.000,0
1637814695.428,-966.309,-965.820,592.285,-1000.000,0.000,0
1637814695.432,815.430,918.945,280.273,-711.914,0.000,0
1637814695.436,-693.359,-400.391,-745.605,901.367,0.000,0
1637814695.440,-831.543,-1000.000,-996.582,625.977,0.000,0
1637814695.443,746.094,457.520,-265.625,-914.062,0.000,0
1637814695.447,-990.234,-957.520,497.070,-1000.000,0.000,0
1637814695.451,-986.328,-973.145,420.898,-970.703,0.000,0
1637814695.455,-221.191,-40.039,-553.711,406.250,0.000,0
1637814695.459,-1000.000,-1000.000,-1000.000,951.660,0.000,0
1637814695.463,404.785,149.414,-234.863,-623.535,0.000,0
1637814695.466,-954.102,-950.684,533.203,-1000.000,0.000,0
1637814695.470,-962.891,-950.684,485.352,-1000.000,0.000,0
1637814695.474,20.996,165.039,-398.926,57.617,0.000,0
1637814695.478,-1000.000,-1000.000,-1000.000,-831.055,0.000,0
1637814695.482,129.395,-79.102,-496.094,-269.531,0.000,0
1637814695.486,-953.613,-974.609,355.469,-1000.000,0.000,0
1637814695.490,-945.801,-931.641,618.652,-1000.000,0.000,0
1637814695.494,235.840,231.445,-216.797,-163.574,0.000,0
1637814695.498,-1000.000,-1000.000,-1000.000,-817.871,0.000,0
1637814695.501,-102.539,-199.219,-623.047,-48.340,0.000,0
1637814695.505,-970.703,-996.094,335.449,-1000.000,0.000,0
1637814695.509,-933.105,-918.457,668.945,-1000.000,0.000,0
1637814695.513,230.469,223.145,-178.711,-271.484,0.000,0
1637814695.517,-1000.000,-1000.000,-1000.000,-825.195,0.000,0
1637814695.521,-203.613,-196.777,-665.039,170.410,0.000,0
1637814695.524,-998.047,995.117,250.000,-1000.000,0.000,0
1637814695.528,-918.457,-920.410,646.484,-1000.000,0.000,0
1637814695.532,222.656,364.258,-78.613,-256.348,0.000,0
1637814695.536,-1000.000,-1000.000,-1000.000,-830.078,0.000,0
1637814695.540,-194.336,-258.301,-790.039,165.039,0.000,0
1637814695.544,992.188,986.816,96.680,-1000.000,0.000,0
1637814695.548,-924.805,-937.988,668.945,-1000.000,0.000,0
1637814695.552,424.805,551.270,31.250,-355.469,0.000,0
1637814695.555,-1000.000,-1000.000,-1000.000,-863.770,0.000,0
1637814695.559,-321.777,-471.191,-847.168,173.828,0.000,0
1637814695.563,972.168,938.965,33.691,-1000.000,0.000,0
1637814695.567,-940.430,-962.891,653.809,-1000.000,0.000,0
1637814695.571,603.516,759.766,139.160,-555.176,0.000,0
1637814695.575,-1000.000,-786.621,-932.617,-955.566,0.000,0
1637814695.579,-549.805,-732.422,-905.273,403.320,0.000,0
1637814695.583,917.480,818.359,-68.359,-980.957,0.000,0
1637814695.586,-977.051,-981.934,583.008,-1000.000,0.000,0
1637814695.590,843.750,947.266,258.301,-768.555,0.000,0
1637814695.594,-650.391,-393.066,-772.949,814.941,0.000,0
1637814695.598,-830.078,-1000.000,-982.422,627.930,0.000,0
1637814695.602,753.906,536.621,-217.285,-919.922,0.000,0
1637814695.606,-991.699,-965.332,496.094,-1000.000,0.000,0
1637814695.609,-981.934,-972.168,458.984,-974.121,0.000,0
1637814695.613,-230.957,-74.219,-483.887,413.086,0.000,0
1637814695.617,-1000.000,-1000.000,-1000.000,926.270,0.000,0
1637814695.621,455.566,231.445,-343.262,-656.738,0.000,0
1637814695.625,-959.961,-950.684,468.750,-1000.000,0.000,0
1637814695.629,-959.961,-950.684,493.164,-1000.000,0.000,0
1637814695.633,15.625,153.809,-438.965,65.430,0.000,0
1637814695.637,-1000.000,-1000.000,-1000.000,-855.469,0.000,0
1637814695.640,175.293,3.906,-433.105,-315.430,0.000,0
1637814695.644,-951.172,-959.473,409.180,-1000.000,0.000,0
1637814695.648,-944.824,-940.430,600.098,-1000.000,0.000,0
1637814695.652,231.445,234.863,-260.742,-159.668,0.000,0
1637814695.656,-1000.000,-1000.000,-1000.000,-826.172,0.000,0
1637814695.660,-32.227,-172.363,-574.707,-92.773,0.000,0
1637814695.663,-957.520,-988.770,323.242,-1000.000,0.000,0
1637814695.667,-941.895,-921.875,655.762,-1000.000,0.000,0
1637814695.671,235.352,225.586,-153.809,-269.043,0.000,0
1637814695.675,-1000.000,-1000.000,-1000.000,-831.055,0.000,0
1637814695.679,-210.938,-205.078,-707.520,115.723,0.000,0
1637814695.683,-979.492,-985.352,242.676,-1000.000,0.000,0
1637814695.687,-974.609,-975.098,648.438,-1000.000,0.000,0
1637814695.690,134.277,249.512,-130.371,-172.363,0.000,0
1637814695.694,-1000.000,-1000.000,-1000.000,-838.867,0.000,0
1637814695.698,-194.824,-228.516,-715.332,166.016,0.000,0
1637814695.702,989.746,991.699,234.863,-1000.000,0.000,0
1637814695.706,-919.922,-936.523,646.973,-1000.000,0.000,0
1637814695.710,411.133,527.344,-32.227,-343.262,0.000,0
1637814695.713,-1000.000,-1000.000,-1000.000,-859.375,0.000,0
1637814695.718,-222.656,-410.645,-839.355,172.363,0.000,0
1637814695.721,-996.582,959.961,14.648,-1000.000,0.000,0
1637814695.725,-943.848,-958.984,646.973,-1000.000,0.000,0
1637814695.729,580.078,725.586,110.840,-511.230,0.000,0
1637814695.733,-972.656,-781.250,-970.703,-997.070,0.000,0
1637814695.737,-366.211,-547.363,-897.461,214.355,0.000,0
1637814695.741,952.637,893.066,-31.738,-1000.000,0.000,0
1637814695.744,-989.746,-999.512,659.668,-1000.000,0.000,0
1637814695.748,843.262,952.148,238.770,-724.609,0.000,0
1637814695.752,-708.008,-444.336,-833.008,886.230,0.000,0
1637814695.756,-693.848,-914.551,-946.777,535.645,0.000,0
1637814695.760,894.043,677.246,-111.816,-959.961,0.000,0
1637814695.764,985.352,-985.352,572.754,-1000.000,0.000,0
1637814695.768,-986.816,-965.332,351.074,-922.363,0.000,0
1637814695.771,-296.875,-104.492,-642.090,545.410,0.000,0
1637814695.775,-995.117,-1000.000,-1000.000,812.500,0.000,0
1637814695.779,591.309,344.238,-302.246,-780.273,0.000,0
1637814695.783,-973.145,-952.637,473.633,-1000.000,0.000,0
1637814695.787,-964.355,-952.637,550.781,-1000.000,0.000,0
1637814695.790,-32.715,120.605,-359.375,178.711,0.000,0
1637814695.794,-1000.000,-1000.000,-1000.000,-923.340,0.000,0
1637814695.798,230.957,77.148,-450.684,-452.637,0.000,0
1637814695.802,-943.848,-951.660,391.113,-1000.000,0.000,0
1637814695.806,-953.125,-945.801,541.504,-1000.000,0.000,0
1637814695.810,147.461,237.305,-342.773,-55.176,0.000,0
1637814695.814,-1000.000,-1000.000,-1000.000,-817.383,0.000,0
1637814695.817,12.207,-152.832,-558.105,-163.574,0.000,0
1637814695.821,-957.520,-984.375,321.777,-1000.000,0.000,0
1637814695.825,-943.848,-924.805,599.121,-1000.000,0.000,0
1637814695.829,237.793,227.051,-222.168,-269.531,0.000,0
1637814695.833,-1000.000,-1000.000,-1000.000,-831.543,0.000,0
1637814695.837,-203.613,-201.172,-710.938,68.848,0.000,0
1637814695.840,-997.559,-1000.000,167.480,-1000.000,0.000,0
1637814695.844,-918.457,-917.480,628.418,-1000.000,0.000,0
1637814695.848,222.656,268.555,-138.184,-264.160,0.000,0
1637814695.852,-1000.000,-1000.000,-1000.000,-827.637,0.000,0
1637814695.856,-198.242,-211.914,-796.875,170.410,0.000,0
1637814695.860,996.094,992.188,80.078,-1000.000,0.000,0
1637814695.863,-917.480,-929.688,640.625,-1000.000,0.000,0
1637814695.867,323.242,447.266,-56.641,-256.348,0.000,0
1637814695.871,-1000.000,-1000.000,-1000.000,-830.078,0.000,0
1637814695.875,-222.168,-403.809,-788.086,160.645,0.000,1
1637814695.879,993.164,943.359,100.098,-1000.000,0.000,0
1637814695.883,-937.012,-936.523,625.000,-1000.000,0.000,0
1637814695.886,520.508,629.883,16.602,-458.496,0.000,0
1637814695.890,-1000.000,-956.543,-1000.000,-903.809,0.000,0
1637814695.894,-436.523,-625.000,-898.438,288.086,0.000,0
1637814695.898,947.754,871.582,-75.684,-1000.000,0.000,0
1637814695.903,-959.473,-963.379,599.121,-1000.000,0.000,0
1637814695.907,734.863,837.891,164.062,-637.207,0.000,0
1637814695.911,-846.680,-600.586,-872.559,978.516,0.000,0
1637814695.914,-669.922,-936.523,-966.797,516.602,0.000,0
1637814695.918,880.371,611.328,-232.910,-951.172,0.000,0
1637814695.922,-990.234,-961.914,530.762,-1000.000,0.000,0
1637814695.926,937.500,987.305,327.637,-876.953,0.000,0
1637814695.930,-439.453,-217.285,-698.242,615.234,0.000,0
1637814695.933,-984.375,-1000.000,-1000.000,804.199,0.000,0
1637814695.937,589.844,284.180,-262.207,-779.785,0.000,0
1637814695.941,-970.703,-947.266,478.027,-1000.000,0.000,0
1637814695.945,-975.098,-964.355,417.969,-1000.000,0.000,0
1637814695.949,-90.820,26.855,-518.555,190.430,0.000,0
1637814695.953,-1000.000,-1000.000,-1000.000,-922.363,0.000,0
1637814695.957,235.840,60.547,-429.688,-453.613,0.000,0
1637814695.961,-945.312,-959.961,397.949,-1000.000,0.000,0
1637814695.965,-954.102,-942.871,553.711,-1000.000,0.000,0
1637814695.968,126.465,208.496,-333.008,-54.688,0.000,0
1637814695.972,-1000.000,-1000.000,-1000.000,-817.383,0.000,0
1637814695.976,15.137,-144.043,-558.105,-163.574,0.000,0
1637814695.980,-959.473,-985.352,340.332,-1000.000,0.000,0
1637814695.984,-943.359,-925.293,589.355,-1000.000,0.000,0
1637814695.988,237.793,227.051,-254.395,-269.531,0.000,0
1637814695.991,-1000.000,-1000.000,-1000.000,-831.543,0.000,0
1637814695.996,-203.613,-202.148,-552.246,68.848,0.000,0
1637814696.000,995.605,994.629,364.746,-1000.000,0.000,0
1637814696.003,-896.484,-895.020,619.629,-1000.000,0.000,0
1637814696.007,168.457,194.336,-161.133,-209.961,0.000,0
1637814696.011,-1000.000,-1000.000,-1000.000,-974.121,0.000,0
1637814696.015,78.125,79.102,-658.203,-107.422,0.000,0
1637814696.019,975.586,974.121,108.887,-1000.000,0.000,0
1637814696.023,-922.363,-932.617,650.391,-1000.000,0.000,0
1637814696.026,319.336,431.641,-5.859,-266.113,0.000,0
1637814696.030,-1000.000,-1000.000,-1000.000,-830.078,0.000,0
1637814696.034,-205.566,-347.656,-836.914,160.645,0.000,0
1637814696.038,997.559,961.914,39.551,-1000.000,0.000,0
1637814696.042,-937.012,-937.500,649.414,-1000.000,0.000,0
1637814696.046,500.488,600.586,12.695,-457.031,0.000,0
1637814696.050,-1000.000,-996.094,-1000.000,-903.809,0.000,0
1637814696.054,-428.223,-573.242,-874.512,264.648,0.000,0
1637814696.057,944.336,897.949,-36.133,-1000.000,0.000,0
1637814696.061,-946.777,-962.402,637.695,-1000.000,0.000,0
1637814696.065,680.664,810.059,177.246,-634.277,0.000,0
1637814696.069,-907.227,-673.340,-891.602,984.863,0.000,0
1637814696.073,-648.438,-858.887,-939.453,478.027,0.000,0
1637814696.077,876.953,699.219,-159.668,-968.750,0.000,0
1637814696.080,-975.098,-970.703,541.992,-1000.000,0.000,0
1637814696.084,882.812,976.074,282.715,-870.117,0.000,0
1637814696.089,-530.762,-277.344,-736.328,655.762,0.000,0
1637814696.092,-959.961,-1000.000,-1000.000,716.797,0.000,0
1637814696.096,602.051,370.117,-305.664,-867.188,0.000,0
1637814696.100,-965.332,-947.754,479.492,-1000.000,0.000,0
1637814696.104,-993.164,-973.145,424.805,-1000.000,0.000,0
1637814696.108,-169.922,-24.902,-543.945,260.254,0.000,0
1637814696.111,-1000.000,-1000.000,-1000.000,992.188,0.000,0
1637814696.115,256.348,104.004,-296.387,-577.637,0.000,0
1637814696.119,-942.383,-955.566,480.957,-1000.000,0.000,0
1637814696.123,-964.844,-947.266,483.398,-1000.000,0.000,0
1637814696.127,35.156,180.176,-386.719,-5.371,0.000,0
1637814696.131,-1000.000,-1000.000,-1000.000,-837.891,0.000,0
1637814696.135,41.992,-115.723,-525.391,-260.254,0.000,0
1637814696.139,-963.867,-981.445,323.730,-1000.000,0.000,0
1637814696.142,-941.406,-927.734,606.445,-1000.000,0.000,0
1637814696.146,236.816,229.004,-225.586,-206.055,0.000,0
1637814696.150,-1000.000,-1000.000,-1000.000,-829.102,0.000,0
1637814696.154,-178.223,-203.613,-633.301,-41.992,0.000,0
1637814696.158,-991.211,-997.070,325.195,-1000.000,0.000,0
1637814696.162,-922.363,-917.969,674.805,-1000.000,0.000,0
1637814696.165,224.609,222.656,-172.363,-270.996,0.000,0
1637814696.169,-1000.000,-1000.000,-1000.000,-825.684,0.000,0
1637814696.173,-203.613,-197.266,-742.676,170.410,0.000,0
1637814696.177,-998.047,996.094,137.695,-1000.000,0.000,0
1637814696.181,-918.945,-923.340,632.324,-1000.000,0.000,0
1637814696.185,222.656,354.492,-80.078,-255.859,0.000,0
1637814696.189,-1000.000,-1000.000,-1000.000,-829.590,0.000,0
1637814696.193,-194.336,-326.660,-807.617,165.039,0.000,0
1637814696.196,992.188,958.984,53.711,-1000.000,0.000,0
1637814696.200,-928.223,-926.270,645.508,-1000.000,0.000,0
1637814696.204,427.246,530.273,81.543,-355.469,0.000,0
1637814696.208,-1000.000,-1000.000,-1000.000,-863.770,0.000,0
1637814696.212,-385.254,-543.457,-876.953,173.340,0.000,0
1637814696.216,944.824,894.043,-14.648,-1000.000,0.000,0
1637814696.219,-930.176,-941.895,619.141,-1000.000,0.000,0
1637814696.223,598.633,726.562,139.648,-555.176,0.000,0
1637814696.227,-1000.000,-779.785,-918.457,-955.566,0.000,0
1637814696.231,-598.633,-845.215,-927.734,403.320,0.000,0
1637814696.235,885.742,681.152,-124.023,-980.957,0.000,0
1637814696.239,-966.309,-952.148,555.176,-1000.000,0.000,0
1637814696.243,836.426,919.434,279.785,-768.555,0.000,0
1637814696.246,-638.184,-388.184,-729.980,813.477,0.000,0
1637814696.250,-872.070,-1000.000,-993.652,636.719,0.000,0
1637814696.254,701.172,393.066,-284.180,-914.062,0.000,0
1637814696.258,-982.422,-949.219,470.703,-1000.000,0.000,0
1637814696.262,-986.328,-979.492,454.590,-970.703,0.000,0
1637814696.266,-223.145,-69.824,-515.137,406.250,0.000,0
1637814696.269,-1000.000,-1000.000,-1000.000,951.660,0.000,0
1637814696.274,413.086,136.719,-374.512,-623.535,0.000,0
1637814696.278,-954.590,-952.148,437.500,-1000.000,0.000,0
1637814696.282,-963.379,-951.172,489.746,-1000.000,0.000,0
1637814696.285,20.996,143.066,-426.270,57.617,0.000,0
1637814696.289,-1000.000,-1000.000,-1000.000,-831.055,0.000,0
1637814696.293,129.883,-78.125,-456.055,-269.531,0.000,0
1637814696.297,-953.613,-976.562,389.160,-1000.000,0.000,0
1637814696.301,-945.801,-931.152,588.867,-1000.000,0.000,0
1637814696.305,236.328,231.445,-254.395,-163.574,0.000,0
1637814696.308,-1000.000,-1000.000,-1000.000,-817.383,0.000,0
1637814696.312,-102.539,-203.613,-603.516,-48.340,0.000,0
1637814696.316,-971.191,-997.070,290.527,-1000.000,0.000,0
1637814696.320,-933.105,-917.969,635.254,-1000.000,0.000,0
1637814696.324,230.469,222.656,-156.738,-270.996,0.000,0
1637814696.328,-1000.000,-1000.000,-1000.000,-825.195,0.000,0
1637814696.332,-203.613,-198.730,-749.023,170.410,0.000,0
1637814696.336,-997.559,998.047,154.785,-1000.000,0.000,0
1637814696.340,-918.457,-921.875,665.527,-1000.000,0.000,0
1637814696.343,222.656,317.383,-75.195,-255.859,0.000,0
1637814696.347,-1000.000,-1000.000,-1000.000,-829.590,0.000,0
1637814696.351,-194.824,-299.316,-739.746,165.039,0.000,0
1637814696.355,992.676,964.844,181.152,-1000.000,0.000,0
1637814696.359,-924.805,-925.293,639.160,-1000.000,0.000,0
1637814696.363,415.039,503.418,-8.301,-355.469,0.000,0
1637814696.367,-1000.000,-1000.000,-1000.000,-863.770,0.000,0
1637814696.371,-320.312,-506.836,-854.004,173.828,0.000,0
1637814696.375,971.191,905.762,-24.902,-1000.000,0.000,0
1637814696.379,-938.477,-938.477,620.605,-1000.000,0.000,0
1637814696.382,591.797,696.289,142.578,-555.176,0.000,0
1637814696.386,-1000.000,-842.285,-935.059,-955.078,0.000,0
1637814696.390,-546.875,-769.043,-932.617,403.320,0.000,0
1637814696.394,914.062,756.348,-86.914,-980.957,0.000,0
1637814696.398,-969.727,-958.008,621.094,-1000.000,0.000,0
1637814696.402,817.871,897.949,248.047,-768.555,0.000,0
1637814696.405,-682.129,-452.637,-798.828,813.477,0.000,0
1637814696.409,-831.055,-1000.000,-963.379,636.719,0.000,0
1637814696.414,740.723,462.891,-226.562,-914.062,0.000,0
1637814696.417,-978.516,-950.195,479.492,-1000.000,0.000,0
1637814696.421,982.910,-993.652,371.582,-972.656,0.000,0
1637814696.425,-284.180,-125.488,-603.027,411.133,0.000,0
1637814696.429,-1000.000,-1000.000,-1000.000,933.105,0.000,0
1637814696.433,417.969,164.551,-324.219,-646.973,0.000,0
1637814696.437,-951.172,-949.219,439.941,-1000.000,0.000,0
1637814696.440,-972.656,-956.543,545.898,-1000.000,0.000,0
1637814696.444,-26.855,86.914,-343.750,70.312,0.000,0
1637814696.448,-1000.000,-1000.000,-1000.000,-856.934,0.000,0
1637814696.452,131.836,-42.969,-473.145,-317.383,0.000,0
1637814696.456,-952.637,-974.609,376.465,-1000.000,0.000,0
1637814696.460,-949.219,-933.594,562.500,-1000.000,0.000,0
1637814696.464,183.594,226.562,-300.781,-148.926,0.000,0
1637814696.468,-1000.000,-1000.000,-1000.000,-822.754,0.000,0
1637814696.471,-94.727,-193.848,-584.473,-88.867,0.000,0
1637814696.475,-975.098,-995.117,301.758,-1000.000,0.000,0
1637814696.479,-931.641,-918.945,625.977,-1000.000,0.000,0
1637814696.483,229.980,223.633,-185.547,-269.531,0.000,0
1637814696.487,-1000.000,-1000.000,-1000.000,-828.613,0.000,0
1637814696.491,-203.613,-200.684,-706.055,119.141,0.000,0
1637814696.494,-998.047,999.512,172.852,-1000.000,0.000,0
1637814696.498,-918.457,-919.922,642.578,-1000.000,0.000,0
1637814696.502,222.656,278.320,-94.727,-260.254,0.000,0
1637814696.506,-1000.000,-1000.000,-1000.000,-828.613,0.000,0
1637814696.510,-197.754,-256.836,-791.016,167.969,0.000,0
1637814696.514,995.605,977.051,113.281,-1000.000,0.000,0
1637814696.518,-921.875,-925.293,664.551,-1000.000,0.000,0
1637814696.522,344.727,462.891,-19.531,-300.781,0.000,0
1637814696.526,-1000.000,-1000.000,-1000.000,-845.215,0.000,0
1637814696.529,-291.504,-453.125,-794.434,167.480,0.000,0
1637814696.533,971.680,923.340,92.773,-1000.000,0.000,0
1637814696.537,-930.664,-934.570,649.414,-1000.000,0.000,0
1637814696.541,529.297,651.367,99.609,-479.004,0.000,0
1637814696.545,-1000.000,-916.016,-969.727,-914.551,0.000,0
1637814696.549,-503.906,-690.918,-907.715,291.992,0.000,0
1637814696.553,916.016,819.824,-83.496,-1000.000,0.000,0
1637814696.557,-951.172,-960.449,590.820,-1000.000,0.000,0
1637814696.560,739.746,866.211,238.281,-663.574,0.000,0
1637814696.564,-808.105,-539.062,-809.082,949.707,0.000,0
1637814696.568,-748.535,-980.469,-971.680,521.973,0.000,0
1637814696.572,799.316,563.477,-166.992,-952.637,0.000,0
1637814696.576,-974.609,-960.938,604.980,-1000.000,0.000,0
1637814696.580,933.594,-997.070,394.531,-879.395,0.000,0
1637814696.583,-416.504,-167.969,-642.090,611.816,0.000,0
1637814696.587,-1000.000,-1000.000,-1000.000,804.688,0.000,0
1637814696.591,519.531,255.371,-282.715,-779.785,0.000,0
1637814696.595,-961.914,-947.266,491.699,-1000.000,0.000,0
1637814696.599,-976.562,-959.961,475.586,-1000.000,0.000,0
1637814696.603,-89.844,63.477,-458.496,189.941,0.000,0
1637814696.607,-1000.000,-1000.000,-1000.000,-922.852,0.000,0
1637814696.610,214.844,33.691,-414.551,-453.613,0.000,0
1637814696.614,-947.266,-961.914,402.832,-1000.000,0.000,0
1637814696.618,-951.660,-940.918,634.277,-1000.000,0.000,0
1637814696.622,128.906,223.145,-216.797,-54.688,0.000,0
1637814696.626,-1000.000,-1000.000,-1000.000,-817.383,0.000,0
1637814696.630,10.742,-167.969,-540.527,-163.574,0.000,0
1637814696.633,-959.961,-989.258,397.461,-1000.000,0.000,0
1637814696.637,-942.871,-922.363,647.949,-1000.000,0.000,0
1637814696.641,237.305,225.586,-207.031,-269.531,0.000,0
1637814696.646,-1000.000,-1000.000,-1000.000,-831.543,0.000,0
1637814696.650,-203.613,-201.172,-603.516,68.848,0.000,0
1637814696.653,-997.559,-999.512,361.328,-1000.000,0.000,0
1637814696.657,-918.457,-917.480,645.508,-1000.000,0.000,0
1637814696.661,222.168,265.137,-121.094,-263.672,0.000,0
1637814696.665,-1000.000,-1000.000,-1000.000,-827.637,0.000,0
1637814696.669,-198.730,-208.496,-751.465,170.410,0.000,0
1637814696.673,995.605,993.164,144.043,-1000.000,0.000,0
1637814696.676,-916.504,-928.711,663.574,-1000.000,0.000,0
1637814696.680,322.266,447.754,7.324,-255.859,0.000,0
1637814696.684,-1000.000,-1000.000,-1000.000,-829.590,0.000,0
1637814696.688,-207.031,-380.371,-817.383,160.645,0.000,0
1637814696.692,998.047,954.102,85.938,-1000.000,0.000,0
1637814696.696,-939.453,-942.383,659.668,-1000.000,0.000,0
1637814696.700,521.973,639.648,44.922,-458.496,0.000,0
1637814696.704,-1000.000,-954.102,-1000.000,-903.320,0.000,0
1637814696.708,-436.523,-601.562,-867.676,288.086,0.000,0
1637814696.712,947.754,894.043,-1.953,-1000.000,0.000,0
1637814696.715,-959.961,-972.656,617.676,-1000.000,0.000,0
1637814696.719,734.863,854.980,203.613,-637.207,0.000,0
1637814696.723,-846.680,-598.633,-844.238,978.516,0.000,0
1637814696.727,-669.922,-889.160,-958.984,516.602,0.000,0
1637814696.731,880.371,680.176,-137.207,-951.172,0.000,1
1637814696.735,-990.234,-976.074,579.102,-1000.000,0.000,0
1637814696.739,937.012,-997.559,333.496,-876.953,0.000,0
1637814696.743,-439.453,-206.543,-676.270,615.234,0.000,0
1637814696.747,-984.375,-1000.000,-1000.000,804.199,0.000,0
1637814696.751,589.844,354.492,-281.738,-779.785,0.000,0
1637814696.754,-971.191,-950.684,501.953,-1000.000,0.000,0
1637814696.758,-974.121,-962.402,470.215,-1000.000,0.000,0
1637814696.762,-93.262,41.504,-489.258,190.430,0.000,0
1637814696.766,-1000.000,-1000.000,-1000.000,-922.363,0.000,0
1637814696.770,248.047,91.309,-254.883,-453.613,0.000,0
1637814696.774,-947.266,-955.566,517.578,-1000.000,0.000,0
1637814696.777,-952.148,-943.848,515.137,-1000.000,0.000,0
1637814696.781,127.930,214.844,-343.750,-54.688,0.000,0
1637814696.786,-1000.000,-1000.000,-1000.000,-817.383,0.000,0
1637814696.789,35.156,-116.699,-517.578,-164.551,0.000,0
1637814696.793,-956.543,-978.027,349.609,-1000.000,0.000,0
1637814696.797,-943.848,-928.711,639.648,-1000.000,0.000,0
1637814696.801,236.816,229.492,-193.848,-268.066,0.000,0
1637814696.805,-1000.000,-1000.000,-1000.000,-833.496,0.000,0
1637814696.809,-178.711,-202.148,-628.906,55.664,0.000,0
1637814696.812,-991.211,-999.512,336.914,-1000.000,0.000,0
1637814696.816,-921.875,-917.480,687.500,-1000.000,0.000,0
1637814696.820,224.609,254.395,-145.996,-265.137,0.000,0
1637814696.824,-1000.000,-1000.000,-1000.000,-827.148,0.000,0
1637814696.828,-198.730,-199.219,-745.605,170.410,0.000,0
1637814696.833,995.605,996.094,136.230,-1000.000,0.000,0
1637814696.836,-916.992,-926.758,643.555,-1000.000,0.000,0
1637814696.840,321.777,425.781,-53.223,-255.859,0.000,0
1637814696.844,-1000.000,-1000.000,-1000.000,-830.078,0.000,0
1637814696.848,-207.520,-331.543,-808.105,161.621,0.000,0
1637814696.852,998.535,969.238,61.523,-1000.000,0.000,0
1637814696.856,-936.523,-941.895,658.203,-1000.000,0.000,0
1637814696.859,505.859,609.863,108.887,-434.082,0.000,0
1637814696.863,-1000.000,-991.211,-988.770,-895.020,0.000,0
1637814696.867,-397.461,-554.199,-888.184,242.676,0.000,0
1637814696.871,960.449,912.109,-22.949,-1000.000,0.000,0
1637814696.875,-959.473,-971.191,619.629,-1000.000,0.000,0
1637814696.879,713.867,830.078,174.805,-611.328,0.000,0
1637814696.883,-878.906,-660.156,-881.836,-999.023,0.000,0
1637814696.887,-621.094,-829.102,-934.570,472.656,0.000,0
1637814696.891,903.809,740.723,-72.266,-961.914,0.000,0
1637814696.894,-992.188,-981.445,568.848,-1000.000,0.000,0
1637814696.898,918.945,990.723,291.992,-817.871,0.000,0
1637814696.902,-502.441,-264.160,-680.664,724.121,0.000,0
1637814696.906,-908.691,-1000.000,-1000.000,703.613,0.000,0
1637814696.910,678.711,422.852,-270.020,-858.398,0.000,0
1637814696.914,-982.910,-955.078,466.797,-1000.000,0.000,0
1637814696.917,-974.609,-965.820,516.602,-983.398,0.000,0
1637814696.921,-148.438,0.488,-404.785,364.258,0.000,0
1637814696.926,-1000.000,-1000.000,-1000.000,981.445,0.000,0
1637814696.929,348.145,136.230,-370.117,-580.566,0.000,0
1637814696.933,-950.684,-951.660,448.730,-1000.000,0.000,0
1637814696.937,-958.984,-948.242,522.461,-1000.000,0.000,0
1637814696.941,64.453,192.383,-376.465,49.316,0.000,0
1637814696.945,-1000.000,-1000.000,-1000.000,-830.566,0.000,0
1637814696.949,89.844,-88.379,-397.949,-261.719,0.000,0
1637814696.952,-955.078,-973.633,452.637,-1000.000,0.000,0
1637814696.956,-943.848,-932.129,580.566,-1000.000,0.000,0
1637814696.960,234.863,231.445,-237.793,-162.598,0.000,0
1637814696.964,-1000.000,-1000.000,-1000.000,-817.871,0.000,0
1637814696.968,-116.211,-203.125,-619.629,-48.340,0.000,0
1637814696.972,-974.609,-997.559,282.227,-1000.000,0.000,0
1637814696.976,-931.152,-917.480,650.391,-1000.000,0.000,0
1637814696.980,229.492,229.492,-131.836,-270.996,0.000,0
1637814696.983,-1000.000,-1000.000,-1000.000,-825.195,0.000,0
1637814696.987,-201.660,-196.777,-748.047,170.410,0.000,0
1637814696.991,999.512,995.117,192.871,-1000.000,0.000,0
1637814696.995,-917.969,-921.875,701.172,-1000.000,0.000,0
1637814696.999,264.160,388.672,-64.453,-255.859,0.000,0
1637814697.003,-1000.000,-1000.000,-1000.000,-829.590,0.000,0
1637814697.006,-199.707,-276.855,-776.367,165.039,0.000,0
1637814697.010,995.117,984.375,98.145,-1000.000,0.000,0
1637814697.014,-929.199,-941.406,645.020,-1000.000,0.000,0
1637814697.019,460.449,580.078,20.020,-355.469,0.000,0
1637814697.022,-1000.000,-1000.000,-1000.000,-863.770,0.000,0
1637814697.026,-328.613,-492.188,-844.727,173.340,0.000,0
1637814697.030,978.027,937.012,6.348,-1000.000,0.000,0
1637814697.034,-949.707,-971.680,622.559,-1000.000,0.000,0
1637814697.038,642.090,800.781,192.383,-555.176,0.000,0
1637814697.042,-970.215,-731.445,-884.277,-955.566,0.000,0
1637814697.046,-558.594,-748.535,-935.059,403.320,0.000,0
1637814697.049,920.410,817.871,-72.754,-980.957,0.000,0
1637814697.053,-980.957,-989.746,608.887,-1000.000,0.000,0
1637814697.057,857.910,976.074,274.414,-768.555,0.000,0
1637814697.061,-625.977,-333.984,-750.488,813.477,0.000,0
1637814697.065,-840.332,-1000.000,-975.098,636.719,0.000,0
1637814697.069,745.605,517.578,-218.262,-914.062,0.000,0
1637814697.073,-988.770,-963.867,504.395,-1000.000,0.000,0
1637814697.077,-984.863,-967.773,398.438,-970.703,0.000,0
1637814697.081,-223.633,-43.457,-571.777,406.250,0.000,0
1637814697.085,-1000.000,-1000.000,-1000.000,951.172,0.000,0
1637814697.088,419.922,209.961,-347.168,-623.535,0.000,0
1637814697.092,-955.078,-950.684,421.387,-1000.000,0.000,0
1637814697.096,-962.402,-948.730,576.660,-1000.000,0.000,0
1637814697.100,20.020,177.246,-294.434,57.617,0.000,0
1637814697.104,-1000.000,-1000.000,-1000.000,-831.055,0.000,0
1637814697.108,142.090,-12.695,-451.660,-269.531,0.000,0
1637814697.112,-952.637,-959.961,390.625,-1000.000,0.000,0
1637814697.116,-945.801,-939.941,574.219,-1000.000,0.000,0
1637814697.120,234.863,234.863,-257.324,-163.574,0.000,0
1637814697.124,-1000.000,-1000.000,-1000.000,-817.871,0.000,0
1637814697.127,-86.426,-184.570,-583.984,-48.340,0.000,0
1637814697.131,-967.773,-992.188,325.684,-1000.000,0.000,0
1637814697.135,-935.059,-920.898,642.090,-1000.000,0.000,0
1637814697.139,231.445,224.121,-153.320,-270.996,0.000,0
1637814697.143,-1000.000,-1000.000,-1000.000,-825.195,0.000,0
1637814697.147,-203.613,-196.777,-713.867,170.410,0.000,0
1637814697.150,-998.047,995.605,173.340,-1000.000,0.000,0
1637814697.154,-918.457,-919.434,649.414,-1000.000,0.000,0
1637814697.159,222.656,361.328,-67.383,-255.859,0.000,0
1637814697.163,-1000.000,-1000.000,-1000.000,-829.590,0.000,0
1637814697.166,-194.336,-248.535,-791.016,165.039,0.000,0
1637814697.170,992.188,990.234,112.305,-1000.000,0.000,0
1637814697.174,-923.828,-937.988,672.363,-1000.000,0.000,0
1637814697.178,423.340,544.922,15.625,-355.469,0.000,0
1637814697.182,-1000.000,-1000.000,-1000.000,-863.770,0.000,0
1637814697.186,-294.922,-452.148,-797.852,173.828,0.000,0
1637814697.189,981.445,945.801,102.539,-1000.000,0.000,0
1637814697.193,-943.359,-964.355,608.398,-1000.000,0.000,0
1637814697.197,605.469,755.859,102.051,-554.688,0.000,0
1637814697.201,-1000.000,-800.781,-935.059,-954.590,0.000,0
1637814697.205,-523.438,-703.125,-918.945,389.160,0.000,0
1637814697.209,931.152,843.750,-89.355,-987.305,0.000,0
1637814697.213,-981.934,-985.840,584.961,-1000.000,0.000,0
1637814697.217,848.633,943.359,268.066,-769.531,0.000,0
1637814697.221,-660.645,-411.133,-770.508,816.406,0.000,0
1637814697.225,-788.574,-998.535,-979.004,616.211,0.000,0
1637814697.228,799.316,562.012,-206.055,-927.246,0.000,0
1637814697.232,999.023,-968.750,564.941,-1000.000,0.000,0
1637814697.236,-976.074,-971.191,412.598,-976.074,0.000,0
1637814697.240,-241.211,-83.008,-606.934,417.480,0.000,0
1637814697.244,-1000.000,-1000.000,-1000.000,911.621,0.000,0
1637814697.248,510.742,254.395,-320.312,-674.805,0.000,0
1637814697.252,-966.797,-949.707,434.082,-1000.000,0.000,0
1637814697.256,-958.008,-952.148,482.422,-1000.000,0.000,0
1637814697.260,13.184,140.625,-429.199,77.148,0.000,0
1637814697.263,-1000.000,-1000.000,-1000.000,-875.977,0.000,0
1637814697.267,203.125,16.113,-433.105,-352.539,0.000,0
1637814697.271,-949.707,-958.984,397.461,-1000.000,0.000,0
1637814697.275,-945.312,-940.918,631.348,-1000.000,0.000,0
1637814697.279,230.469,235.352,-190.918,-135.742,0.000,0
1637814697.283,-1000.000,-1000.000,-1000.000,-824.707,0.000,0
1637814697.286,-5.371,-168.945,-564.453,-112.793,0.000,0
1637814697.290,-952.148,-988.281,335.938,-1000.000,0.000,0
1637814697.294,-944.824,-922.852,626.465,-1000.000,0.000,0
1637814697.298,237.305,225.586,-180.664,-269.043,0.000,0
1637814697.302,-1000.000,-1000.000,-1000.000,-830.078,0.000,0
1637814697.306,-203.613,-198.242,-687.012,99.121,0.000,0
1637814697.310,-998.047,997.070,208.496,-1000.000,0.000,0
1637814697.314,-918.457,-917.969,645.508,-1000.000,0.000,0
1637814697.318,222.656,327.637,-93.262,-261.719,0.000,0
1637814697.321,-1000.000,-1000.000,-1000.000,-828.125,0.000,0
1637814697.325,-194.824,-220.703,-774.414,167.969,0.000,0
1637814697.329,992.676,995.605,101.562,-1000.000,0.000,0
1637814697.333,-919.434,-936.523,652.344,-1000.000,0.000,0
1637814697.337,409.180,521.484,-10.742,-298.828,0.000,0
1637814697.341,-1000.000,-1000.000,-1000.000,-844.238,0.000,0
1637814697.345,-220.703,-400.879,-834.473,166.992,0.000,0
1637814697.349,-994.141,963.379,43.457,-1000.000,0.000,0
1637814697.353,-951.172,-964.355,641.602,-1000.000,0.000,0
1637814697.356,598.633,733.887,106.934,-477.539,0.000,0
1637814697.360,-1000.000,-849.121,-975.586,-913.574,0.000,0
1637814697.364,-454.102,-629.883,-861.328,291.992,0.000,0
1637814697.368,962.891,900.879,29.297,-1000.000,0.000,0
1637814697.372,-987.793,-995.117,583.984,-1000.000,0.000,0
1637814697.376,833.496,935.547,226.074,-654.785,0.000,0
1637814697.379,-718.262,-467.285,-790.527,958.984,0.000,0
1637814697.383,-691.895,-916.016,-974.121,520.020,0.000,0
1637814697.387,892.090,671.387,-224.121,-951.660,0.000,0
1637814697.392,989.258,-982.422,513.184,-1000.000,0.000,0
1637814697.396,-997.559,-970.703,364.746,-876.953,0.000,0
1637814697.399,-316.895,-119.141,-633.301,615.234,0.000,0
1637814697.403,-993.652,-1000.000,-1000.000,804.688,0.000,0
1637814697.407,590.820,325.684,-308.594,-779.785,0.000,0
1637814697.411,-972.656,-950.195,499.023,-1000.000,0.000,0
1637814697.415,-966.309,-955.078,494.629,-1000.000,0.000,0
1637814697.419,-42.480,102.051,-460.938,190.430,0.000,0
1637814697.422,-1000.000,-1000.000,-1000.000,-922.363,0.000,0
1637814697.426,233.887,67.383,-376.953,-453.613,0.000,0
1637814697.430,-946.777,-954.590,413.574,-1000.000,0.000,0
1637814697.434,-950.684,-942.871,531.250,-1000.000,0.000,0
1637814697.438,179.688,235.840,-337.402,-54.688,0.000,0
1637814697.442,-1000.000,-1000.000,-1000.000,-817.383,0.000,0
1637814697.446,7.324,-139.648,-550.781,-163.574,0.000,0
1637814697.450,-955.566,-980.957,308.594,-1000.000,0.000,0
1637814697.454,-944.336,-926.758,637.695,-1000.000,0.000,0
1637814697.458,237.793,227.539,-166.504,-269.531,0.000,0
1637814697.462,-1000.000,-1000.000,-1000.000,-831.543,0.000,0
1637814697.465,-203.613,-199.707,-681.641,68.848,0.000,0
1637814697.469,-997.559,999.023,276.367,-1000.000,0.000,0
1637814697.473,-918.457,-916.992,694.824,-1000.000,0.000,0
1637814697.477,222.656,291.992,-121.582,-263.672,0.000,0
1637814697.481,-1000.000,-1000.000,-1000.000,-827.148,0.000,0
1637814697.485,-198.242,-203.613,-760.254,170.410,0.000,0
1637814697.489,993.652,996.094,101.562,-1000.000,0.000,0
1637814697.493,-910.156,-924.805,633.301,-1000.000,0.000,0
1637814697.497,313.477,456.543,-35.645,-237.793,0.000,0
1637814697.501,-1000.000,-1000.000,-1000.000,-886.230,0.000,0
1637814697.504,-120.605,-277.344,-804.688,72.754,0.000,0
1637814697.508,988.281,955.566,59.082,-1000.000,0.000,0
1637814697.512,-939.453,-950.684,641.113,-1000.000,0.000,0
1637814697.516,523.926,669.434,123.047,-460.938,0.000,0
1637814697.520,-1000.000,-931.152,-960.938,-903.320,0.000,0
1637814697.524,-436.523,-594.238,-889.648,288.086,0.000,0
1637814697.527,947.266,905.762,-8.301,-1000.000,0.000,0
1637814697.532,-959.473,-981.445,616.211,-1000.000,0.000,0
1637814697.536,734.863,877.930,190.918,-637.207,0.000,0
1637814697.540,-846.680,-570.312,-851.562,978.516,0.000,0
1637814697.543,-670.410,-884.277,-951.660,516.602,0.000,0
1637814697.547,880.371,691.895,-164.551,-951.172,0.000,0
1637814697.551,-990.234,-979.492,541.016,-1000.000,0.000,0
1637814697.555,937.012,-991.211,335.449,-876.953,0.000,0
1637814697.559,-439.453,-195.801,-661.621,615.723,0.000,0
1637814697.563,-984.863,-1000.000,-1000.000,804.688,0.000,0
1637814697.566,589.844,363.770,-325.195,-779.785,0.000,0
1637814697.570,-971.191,-952.637,449.707,-1000.000,0.000,0
1637814697.574,-973.633,-959.473,441.895,-1000.000,0.000,0
1637814697.579,-94.238,53.711,-500.977,190.430,0.000,0
1637814697.583,-1000.000,-1000.000,-1000.000,-922.852,0.000,0
1637814697.587,253.418,99.121,-398.438,-453.613,0.000,0
1637814697.590,-947.266,-953.613,420.898,-1000.000,0.000,0
1637814697.594,-953.125,-945.312,544.922,-1000.000,0.000,0
1637814697.598,128.906,219.727,-334.961,-54.688,0.000,0
1637814697.602,-1000.000,-1000.000,-1000.000,-817.383,0.000,0
1637814697.606,27.832,-121.582,-431.641,-163.574,0.000,0
1637814697.610,-957.520,-978.516,406.738,-1000.000,0.000,0
1637814697.613,-943.359,-928.223,575.195,-1000.000,0.000,0
1637814697.617,237.305,229.004,-210.449,-269.531,0.000,0
1637814697.621,-1000.000,-1000.000,-1000.000,-831.543,0.000,0
1637814697.626,-185.547,-201.660,-662.598,68.848,0.000,0
1637814697.630,-992.676,-999.023,213.379,-1000.000,0.000,0
1637814697.634,-920.898,-916.992,651.855,-1000.000,0.000,0
1637814697.637,224.121,257.812,-108.887,-263.672,0.000,0
1637814697.641,-1000.000,-1000.000,-1000.000,-827.637,0.000,0
1637814697.645,-198.730,-199.707,-745.605,170.410,0.000,1
1637814697.649,996.094,996.094,151.367,-1000.000,0.000,0
1637814697.653,-916.504,-927.734,655.762,-1000.000,0.000,0
1637814697.657,321.777,434.082,-43.457,-255.859,0.000,0
1637814697.660,-1000.000,-1000.000,-1000.000,-829.590,0.000,0
1637814697.664,-207.031,-341.797,-757.812,161.133,0.000,0
1637814697.668,998.047,966.797,135.254,-1000.000,0.000,0
1637814697.672,-937.988,-942.383,618.164,-1000.000,0.000,0
1637814697.676,520.020,618.164,11.230,-453.613,0.000,0
1637814697.680,-1000.000,-980.957,-1000.000,-902.832,0.000,0
1637814697.684,-400.391,-565.430,-879.883,255.371,0.000,0
1637814697.688,963.379,908.691,-61.035,-1000.000,0.000,0
1637814697.692,-964.844,-973.145,610.352,-1000.000,0.000,0
1637814697.695,737.793,841.309,208.008,-632.812,0.000,0
1637814697.699,-853.027,-640.625,-859.863,986.816,0.000,0
1637814697.703,-625.000,-836.914,-951.172,471.680,0.000,0
1637814697.707,907.715,735.840,-123.535,-971.191,0.000,0
1637814697.711,-997.070,-981.934,585.938,-1000.000,0.000,0
1637814697.715,936.035,994.629,307.129,-862.793,0.000,0
1637814697.719,-473.633,-248.047,-713.867,662.109,0.000,0
1637814697.723,-919.434,-1000.000,-986.328,727.051,0.000,0
1637814697.727,670.898,406.738,-269.043,-852.539,0.000,0
1637814697.730,-982.910,-954.590,454.102,-1000.000,0.000,0
1637814697.734,-970.215,-964.844,420.898,-1000.000,0.000,0
1637814697.738,-125.488,11.719,-523.438,271.484,0.000,0
1637814697.742,-1000.000,-1000.000,-1000.000,995.117,0.000,0
1637814697.746,334.473,127.930,-409.668,-571.289,0.000,0
1637814697.750,-951.172,-952.148,390.137,-1000.000,0.000,0
1637814697.753,-955.566,-947.266,556.641,-1000.000,0.000,0
1637814697.757,94.727,202.148,-333.008,1.953,0.000,0
1637814697.761,-1000.000,-1000.000,-1000.000,-833.984,0.000,0
1637814697.766,76.660,-101.074,-520.020,-250.488,0.000,0
1637814697.770,-954.102,-976.074,338.867,-1000.000,0.000,0
1637814697.773,-945.312,-930.176,586.426,-1000.000,0.000,0
1637814697.777,236.328,230.469,-237.793,-207.031,0.000,0
1637814697.781,-1000.000,-1000.000,-1000.000,-827.637,0.000,0
1637814697.785,-145.020,-203.125,-626.953,-30.762,0.000,0
1637814697.789,-982.422,-997.559,274.414,-1000.000,0.000,0
1637814697.793,-926.758,-917.969,634.277,-1000.000,0.000,0
1637814697.796,227.051,230.469,-150.391,-270.508,0.000,0
1637814697.800,-1000.000,-1000.000,-1000.000,-825.684,0.000,0
1637814697.804,-201.660,-196.777,-754.883,170.410,0.000,0
1637814697.808,999.023,995.117,104.492,-1000.000,0.000,0
1637814697.813,-917.480,-923.340,648.438,-1000.000,0.000,0
1637814697.816,266.602,386.230,-40.527,-255.859,0.000,0
1637814697.820,-1000.000,-1000.000,-1000.000,-829.590,0.000,0
1637814697.824,-200.195,-304.199,-805.664,165.039,0.000,0
1637814697.828,995.117,972.656,87.891,-1000.000,0.000,0
1637814697.832,-929.199,-936.523,664.062,-1000.000,0.000,0
1637814697.836,461.914,572.754,25.391,-355.469,0.000,0
1637814697.839,-1000.000,-1000.000,-1000.000,-863.770,0.000,0
1637814697.843,-329.102,-522.949,-797.852,173.340,0.000,0
1637814697.847,979.980,919.922,84.473,-1000.000,0.000,0
1637814697.851,-956.543,-966.309,587.402,-1000.000,0.000,0
1637814697.855,670.410,799.316,148.438,-555.176,0.000,0
1637814697.859,-938.965,-721.680,-888.672,-955.566,0.000,0
1637814697.863,-565.430,-772.461,-932.617,403.320,0.000,0
1637814697.867,926.270,794.922,-140.625,-980.957,0.000,0
1637814697.871,-992.188,-987.793,545.898,-1000.000,0.000,0
1637814697.875,894.043,980.957,299.316,-768.555,0.000,0
1637814697.878,-570.312,-312.988,-725.098,813.477,0.000,0
1637814697.882,-847.168,-1000.000,-999.512,636.719,0.000,0
1637814697.886,748.535,496.094,-245.117,-914.062,0.000,0
1637814697.890,-992.188,-961.914,533.203,-1000.000,0.000,0
1637814697.894,-976.074,-966.797,431.641,-970.703,0.000,0
1637814697.898,-190.430,-24.414,-562.012,406.250,0.000,0
1637814697.902,-1000.000,-1000.000,-1000.000,951.172,0.000,0
1637814697.906,418.945,188.477,-343.262,-623.535,0.000,0
1637814697.910,-955.566,-949.707,415.527,-1000.000,0.000,0
1637814697.914,-959.961,-948.730,500.000,-1000.000,0.000,0
1637814697.918,46.875,185.547,-395.996,57.617,0.000,0
1637814697.921,-1000.000,-1000.000,-1000.000,-831.055,0.000,0
1637814697.925,126.953,-36.133,-453.125,-269.531,0.000,0
1637814697.929,-952.148,-963.379,374.023,-1000.000,0.000,0
1637814697.933,-946.289,-937.500,651.367,-1000.000,0.000,0
1637814697.937,236.328,233.887,-161.133,-163.574,0.000,0
1637814697.941,-1000.000,-1000.000,-1000.000,-817.383,0.000,0
1637814697.944,-102.539,-190.430,-581.543,-48.340,0.000,0
1637814697.948,-970.703,-994.629,314.453,-1000.000,0.000,0
1637814697.953,-933.105,-919.922,617.188,-1000.000,0.000,0
1637814697.957,230.469,232.422,-171.875,-271.484,0.000,0
1637814697.960,-1000.000,-1000.000,-1000.000,-825.684,0.000,0
1637814697.964,-202.148,-196.777,-722.168,170.410,0.000,0
1637814697.968,-999.512,995.117,155.762,-1000.000,0.000,0
1637814697.972,-917.969,-920.898,645.996,-1000.000,0.000,0
1637814697.976,252.930,386.719,-57.129,-256.348,0.000,0
1637814697.980,-1000.000,-1000.000,-1000.000,-829.590,0.000,0
1637814697.983,-198.242,-249.512,-796.875,165.039,0.000,0
1637814697.987,994.141,994.141,66.895,-1000.000,0.000,0
1637814697.991,-926.270,-944.336,646.973,-1000.000,0.000,0
1637814697.995,445.801,582.520,18.066,-355.469,0.000,0
1637814697.999,-1000.000,-1000.000,-1000.000,-863.770,0.000,0
1637814698.003,-295.410,-455.566,-851.562,173.828,0.000,0
1637814698.007,985.352,954.590,29.785,-1000.000,0.000,0
1637814698.011,-946.289,-976.562,636.230,-1000.000,0.000,0
1637814698.015,612.793,798.340,131.836,-555.176,0.000,0
1637814698.019,-1000.000,-749.512,-934.082,-955.566,0.000,0
1637814698.022,-525.391,-707.031,-877.930,403.320,0.000,0
1637814698.026,931.152,854.980,-1.953,-981.445,0.000,0
1637814698.030,-982.422,-997.559,569.824,-1000.000,0.000,0
1637814698.034,848.633,978.027,258.789,-768.555,0.000,0
1637814698.038,-660.156,-356.445,-748.535,813.477,0.000,0
1637814698.042,-791.016,-993.164,-987.793,636.719,0.000,0
1637814698.046,796.875,579.102,-244.629,-914.062,0.000,0
1637814698.050,998.047,-974.121,494.629,-1000.000,0.000,0
1637814698.054,-971.191,-958.984,399.902,-978.027,0.000,0
1637814698.057,-254.395,-72.266,-588.867,424.805,0.000,0
1637814698.061,-1000.000,-1000.000,-1000.000,895.020,0.000,0
1637814698.065,569.824,333.984,-284.180,-712.402,0.000,0
1637814698.069,-974.121,-961.426,502.930,-1000.000,0.000,0
1637814698.073,-959.473,-949.707,515.137,-1000.000,0.000,0
1637814698.077,18.066,168.457,-440.430,59.082,0.000,0
1637814698.081,-1000.000,-1000.000,-1000.000,-841.797,0.000,0
1637814698.084,180.176,9.766,-458.008,-290.039,0.000,0
1637814698.088,-950.684,-957.520,354.980,-1000.000,0.000,0
1637814698.092,-946.289,-941.406,559.570,-1000.000,0.000,0
1637814698.096,232.910,235.352,-286.133,-161.133,0.000,0
1637814698.100,-1000.000,-1000.000,-1000.000,-821.777,0.000,0
1637814698.104,-42.480,-173.828,-599.609,-71.777,0.000,0
1637814698.108,-959.473,-989.258,277.344,-1000.000,0.000,0
1637814698.112,-940.918,-922.363,673.340,-1000.000,0.000,0
1637814698.116,234.375,225.098,-123.535,-270.020,0.000,0
1637814698.119,-1000.000,-1000.000,-1000.000,-827.637,0.000,0
1637814698.123,-203.613,-197.266,-717.285,135.254,0.000,0
1637814698.127,-998.047,996.094,208.496,-1000.000,0.000,0
1637814698.131,-918.457,-918.945,657.715,-1000.000,0.000,0
1637814698.135,222.656,348.145,-110.840,-258.789,0.000,0
1637814698.139,-1000.000,-1000.000,-1000.000,-829.102,0.000,0
1637814698.143,-194.336,-234.863,-781.250,165.039,0.000,0
1637814698.147,992.188,993.164,86.426,-1000.000,0.000,0
1637814698.151,-920.898,-937.500,644.043,-1000.000,0.000,0
1637814698.155,419.922,534.668,-14.160,-355.469,0.000,0
1637814698.159,-1000.000,-1000.000,-1000.000,-863.770,0.000,0
1637814698.162,-244.629,-432.129,-839.355,173.828,0.000,0
1637814698.166,998.535,952.637,14.160,-1000.000,0.000,0
1637814698.170,-949.707,-964.355,627.930,-1000.000,0.000,0
1637814698.174,608.398,748.047,125.977,-542.969,0.000,0
1637814698.178,-1000.000,-821.289,-943.359,-948.242,0.000,0
1637814698.182,-470.215,-666.992,-922.852,329.590,0.000,0
1637814698.186,958.984,875.488,-84.961,-1000.000,0.000,0
1637814698.190,-992.676,-992.676,583.496,-1000.000,0.000,0
1637814698.194,858.887,945.801,228.027,-752.930,0.000,0
1637814698.198,-682.617,-428.711,-798.828,848.633,0.000,0
1637814698.202,-698.730,-959.473,-968.750,551.270,0.000,0
1637814698.205,896.973,617.676,-200.195,-960.938,0.000,0
1637814698.209,978.516,-976.562,510.254,-1000.000,0.000,0
1637814698.213,-965.820,-968.750,357.422,-961.426,0.000,0
1637814698.217,-257.324,-94.238,-620.605,483.887,0.000,0
1637814698.221,-998.047,-1000.000,-1000.000,820.312,0.000,0
1637814698.225,592.285,297.852,-341.797,-783.691,0.000,0
1637814698.228,-975.098,-950.195,442.871,-1000.000,0.000,0
1637814698.233,-958.496,-953.125,485.840,-1000.000,0.000,0
1637814698.237,-3.418,129.883,-444.824,135.254,0.000,0
1637814698.241,-1000.000,-1000.000,-1000.000,-925.781,0.000,0
1637814698.244,231.445,45.898,-445.312,-451.172,0.000,0
1637814698.248,-946.777,-955.078,360.840,-1000.000,0.000,0
1637814698.252,-949.219,-943.359,547.363,-1000.000,0.000,0
1637814698.256,208.496,236.328,-272.461,-91.797,0.000,0
1637814698.260,-1000.000,-1000.000,-1000.000,-824.219,0.000,0
1637814698.264,3.418,-162.109,-484.863,-158.691,0.000,0
1637814698.268,-953.125,-986.816,377.441,-1000.000,0.000,0
1637814698.271,-945.312,-923.828,577.148,-1000.000,0.000,0
1637814698.275,237.793,226.074,-213.867,-269.531,0.000,0
1637814698.280,-1000.000,-1000.000,-1000.000,-831.543,0.000,0
1637814698.283,-203.613,-199.707,-718.262,68.848,0.000,0
1637814698.287,-998.047,998.535,150.879,-1000.000,0.000,0
1637814698.291,-918.945,-917.480,658.203,-1000.000,0.000,0
1637814698.295,222.656,301.270,-89.844,-263.672,0.000,0
1637814698.299,-1000.000,-1000.000,-1000.000,-827.637,0.000,0
1637814698.303,-196.777,-213.867,-787.109,170.410,0.000,0
1637814698.307,994.141,994.629,133.301,-1000.000,0.000,0
1637814698.310,-917.969,-933.594,682.617,-1000.000,0.000,0
1637814698.314,363.770,492.188,-47.363,-256.348,0.000,0
1637814698.318,-1000.000,-1000.000,-1000.000,-830.078,0.000,0
1637814698.322,-213.379,-394.043,-825.195,161.133,0.000,0
1637814698.326,-998.047,958.496,1.465,-1000.000,0.000,0
1637814698.330,-944.336,-953.125,608.887,-1000.000,0.000,0
1637814698.334,551.758,688.477,47.363,-458.496,0.000,0
1637814698.338,-1000.000,-901.855,-1000.000,-903.320,0.000,0
1637814698.342,-443.359,-618.652,-867.676,288.086,0.000,0
1637814698.346,953.613,897.949,-21.484,-1000.000,0.000,0
1637814698.349,-971.191,-985.352,576.172,-1000.000,0.000,0
1637814698.353,775.879,901.855,251.953,-637.207,0.000,0
1637814698.357,-793.457,-521.973,-781.250,978.516,0.000,0
1637814698.361,-679.199,-911.621,-981.934,516.602,0.000,0
1637814698.365,884.277,666.992,-225.586,-951.172,0.000,0
1637814698.369,-996.094,-978.027,507.812,-1000.000,0.000,0
1637814698.373,957.520,-983.398,315.430,-876.953,0.000,0
1637814698.377,-401.855,-157.715,-682.129,615.234,0.000,0
1637814698.381,-987.305,-1000.000,-1000.000,804.199,0.000,0
1637814698.385,589.844,327.637,-316.406,-779.785,0.000,1
1637814698.388,-970.215,-949.707,411.133,-1000.000,0.000,0
1637814698.392,-974.121,-958.496,437.012,-1000.000,0.000,0
1637814698.396,-83.984,74.219,-460.938,190.430,0.000,0
1637814698.400,-1000.000,-1000.000,-1000.000,-922.363,0.000,0
1637814698.404,235.352,73.730,-456.543,-453.613,0.000,0
1637814698.408,-945.312,-955.078,391.602,-1000.000,0.000,0
1637814698.412,-953.613,-944.824,530.273,-1000.000,0.000,0
1637814698.415,129.883,226.562,-360.352,-54.688,0.000,0
1637814698.420,-1000.000,-1000.000,-1000.000,-817.383,0.000,0
1637814698.424,14.648,-154.297,-561.035,-163.574,0.000,0
1637814698.427,-958.984,-986.328,318.359,-1000.000,0.000,0
1637814698.431,-943.359,-924.316,581.543,-1000.000,0.000,0
1637814698.435,237.793,226.562,-232.910,-269.531,0.000,0
1637814698.439,-1000.000,-1000.000,-1000.000,-831.543,0.000,0
1637814698.443,-203.613,-200.684,-589.844,68.848,0.000,0
1637814698.447,-998.047,999.512,322.266,-1000.000,0.000,0
1637814698.450,-918.457,-916.992,611.816,-1000.000,0.000,0
1637814698.454,222.656,275.879,-128.906,-264.160,0.000,0
1637814698.458,-1000.000,-1000.000,-1000.000,-827.637,0.000,0
1637814698.462,-198.730,-201.172,-770.996,170.410,0.000,0
1637814698.466,996.094,996.094,94.727,-1000.000,0.000,0
1637814698.470,-916.504,-930.664,637.207,-1000.000,0.000,0
1637814698.474,321.777,464.844,-26.855,-255.859,0.000,0
1637814698.478,-1000.000,-1000.000,-1000.000,-829.590,0.000,0
1637814698.482,-207.031,-354.980,-769.531,160.645,0.000,0
1637814698.485,998.047,968.262,167.969,-1000.000,0.000,0
1637814698.489,-938.965,-950.684,643.555,-1000.000,0.000,0
1637814698.493,521.484,659.180,18.066,-458.496,0.000,0
1637814698.497,-1000.000,-939.941,-1000.000,-903.320,0.000,0
1637814698.501,-424.805,-585.449,-851.074,288.086,0.000,0
1637814698.505,952.637,908.691,-39.551,-1000.000,0.000,0
1637814698.509,-961.426,-981.934,564.453,-1000.000,0.000,0
1637814698.513,735.840,875.977,186.523,-637.207,0.000,0
1637814698.517,-849.121,-581.055,-854.980,978.516,0.000,0
1637814698.521,-652.344,-865.234,-951.660,516.602,0.000,0
1637814698.525,891.602,714.355,-187.988,-951.172,0.000,0
1637814698.529,-994.629,-984.375,517.578,-1000.000,0.000,0
1637814698.532,941.406,-987.793,343.262,-876.953,0.000,0
1637814698.536,-448.730,-197.266,-665.527,615.723,0.000,0
1637814698.540,-952.148,-1000.000,-1000.000,802.734,0.000,0
1637814698.544,632.812,388.672,-311.035,-781.738,0.000,0
1637814698.548,-978.027,-955.078,458.496,-1000.000,0.000,0
1637814698.552,-971.191,-959.473,426.270,-1000.000,0.000,0
1637814698.555,-97.656,52.246,-529.785,194.336,0.000,0
1637814698.560,-1000.000,-1000.000,-1000.000,-936.035,0.000,0
1637814698.564,275.879,108.887,-404.785,-474.121,0.000,0
1637814698.568,-949.219,-952.637,369.141,-1000.000,0.000,0
1637814698.572,-953.125,-945.801,525.391,-1000.000,0.000,0
1637814698.575,128.418,217.285,-356.445,-53.223,0.000,0
1637814698.579,-1000.000,-1000.000,-1000.000,-821.289,0.000,0
1637814698.583,37.598,-115.234,-500.977,-179.199,0.000,0
1637814698.587,-956.543,-977.539,331.055,-1000.000,0.000,0
1637814698.591,-944.336,-929.199,639.648,-1000.000,0.000,0
1637814698.595,237.305,229.492,-162.598,-268.066,0.000,0
1637814698.598,-1000.000,-1000.000,-1000.000,-834.473,0.000,0
1637814698.602,-183.594,-202.148,-669.922,44.434,0.000,0
1637814698.607,-992.188,-999.023,199.219,-1000.000,0.000,0
1637814698.611,-921.387,-917.480,601.074,-1000.000,0.000,0
1637814698.615,224.121,251.953,-159.180,-265.625,0.000,0
1637814698.619,-1000.000,-1000.000,-1000.000,-827.148,0.000,0
1637814698.622,-199.219,-199.219,-759.277,170.410,0.000,0
1637814698.626,996.582,996.094,105.469,-1000.000,0.000,0
1637814698.630,-916.992,-926.758,638.672,-1000.000,0.000,0
1637814698.634,310.059,420.898,-49.805,-255.859,0.000,0
1637814698.638,-1000.000,-1000.000,-1000.000,-830.078,0.000,0
1637814698.642,-205.566,-339.355,-812.500,161.621,0.000,0
1637814698.646,997.559,965.332,31.738,-1000.000,0.000,0
1637814698.649,-937.012,-939.941,621.094,-1000.000,0.000,0
1637814698.654,505.371,607.422,22.949,-435.059,0.000,0
1637814698.658,-1000.000,-991.699,-1000.000,-895.020,0.000,0
1637814698.662,-408.691,-563.477,-881.348,243.164,0.000,0
1637814698.665,955.566,906.250,-29.785,-1000.000,0.000,0
1637814698.669,-957.520,-968.750,620.605,-1000.000,0.000,0
1637814698.673,714.355,825.195,171.387,-605.957,0.000,0
1637814698.677,-876.465,-660.156,-870.117,-995.117,0.000,0
1637814698.681,-626.953,-841.309,-937.500,465.820,0.000,0
1637814698.685,901.367,725.586,-187.012,-965.332,0.000,0
1637814698.689,-993.164,-979.004,503.418,-1000.000,0.000,0
1637814698.692,926.270,989.746,289.551,-828.125,0.000,0
1637814698.696,-491.699,-260.254,-718.750,714.844,0.000,0
1637814698.701,-909.668,-1000.000,-996.094,695.801,0.000,0
1637814698.704,681.641,409.668,-306.641,-868.164,0.000,0
1637814698.708,-986.328,-955.078,447.266,-1000.000,0.000,0
1637814698.712,-966.309,-964.355,412.109,-978.516,0.000,0
1637814698.716,-134.766,10.742,-512.207,251.953,0.000,0
1637814698.720,-1000.000,-1000.000,-979.980,786.133,0.000,0
1637814698.724,387.695,131.348,-388.184,-602.539,0.000,0
1637814698.728,-957.031,-952.637,443.848,-1000.000,0.000,0
1637814698.731,-951.660,-946.289,529.785,-1000.000,0.000,0
1637814698.735,105.957,203.613,-406.738,19.531,0.000,0
1637814698.739,-1000.000,-1000.000,-1000.000,-836.426,0.000,0
1637814698.743,119.141,-84.473,-501.465,-267.090,0.000,0
1637814698.747,-947.266,-971.680,327.637,-1000.000,0.000,0
1637814698.751,-947.754,-932.617,584.473,-1000.000,0.000,0
1637814698.755,235.840,231.445,-239.746,-192.383,0.000,0
1637814698.759,-1000.000,-1000.000,-1000.000,-825.684,0.000,0
1637814698.763,-102.539,-197.754,-619.141,-43.945,0.000,0
1637814698.767,-971.191,-997.559,270.996,-1000.000,0.000,0
1637814698.770,-933.105,-917.969,684.570,-1000.000,0.000,0
1637814698.774,230.469,245.605,-84.961,-271.484,0.000,0
1637814698.778,-1000.000,-1000.000,-1000.000,-825.684,0.000,0
1637814698.782,-199.707,-198.242,-744.629,170.410,0.000,0
1637814698.786,997.559,995.605,143.066,-1000.000,0.000,0
1637814698.790,-916.992,-923.828,637.695,-1000.000,0.000,0
1637814698.794,297.363,413.086,-72.754,-255.859,0.000,0
1637814698.798,-1000.000,-1000.000,-1000.000,-830.078,0.000,0
1637814698.802,-204.102,-291.016,-798.828,165.039,0.000,0
1637814698.805,997.070,982.910,62.988,-1000.000,0.000,0
1637814698.809,-931.641,-943.848,639.160,-1000.000,0.000,0
1637814698.813,483.398,600.098,30.762,-355.469,0.000,0
1637814698.817,-1000.000,-1000.000,-1000.000,-863.770,0.000,0
1637814698.821,-333.496,-510.742,-856.934,173.828,0.000,0
1637814698.825,982.422,933.105,-26.367,-1000.000,0.000,0
1637814698.829,-960.938,-976.074,604.004,-1000.000,0.000,0
1637814698.832,686.523,822.754,155.273,-555.176,0.000,0
1637814698.836,-921.875,-695.312,-903.320,-955.566,0.000,0
1637814698.841,-568.359,-767.090,-941.895,403.320,0.000,0
1637814698.844,927.246,804.688,-106.445,-980.957,0.000,0
1637814698.848,-993.164,-990.723,591.309,-1000.000,0.000,0
1637814698.852,897.461,985.840,282.715,-768.555,0.000,0
1637814698.856,-564.941,-303.711,-750.977,813.477,0.000,0
1637814698.860,-847.656,-1000.000,-959.961,636.719,0.000,0
1637814698.864,748.535,496.582,-189.941,-914.062,0.000,0
1637814698.868,-992.188,-963.379,487.305,-1000.000,0.000,0
1637814698.871,-975.098,-965.332,409.180,-970.703,0.000,0
1637814698.875,-187.988,-21.973,-548.828,406.250,0.000,0
1637814698.879,-1000.000,-1000.000,-1000.000,951.172,0.000,0
1637814698.883,417.969,194.824,-373.535,-624.023,0.000,0
1637814698.887,-955.078,-949.219,425.781,-1000.000,0.000,0
1637814698.891,-961.426,-949.219,505.859,-1000.000,0.000,0
1637814698.895,37.598,184.570,-404.297,57.617,0.000,0
1637814698.899,-1000.000,-1000.000,-1000.000,-831.055,0.000,0
1637814698.903,127.930,-37.598,-482.422,-269.531,0.000,0
1637814698.907,-952.637,-963.867,376.953,-1000.000,0.000,0
1637814698.911,-946.289,-937.500,594.727,-1000.000,0.000,0
1637814698.914,235.840,233.887,-249.023,-163.574,0.000,0
1637814698.918,-1000.000,-1000.000,-1000.000,-817.383,0.000,0
1637814698.922,-102.539,-195.312,-554.688,-48.340,0.000,0
1637814698.926,-971.191,-995.117,324.219,-1000.000,0.000,0
1637814698.930,-933.594,-918.945,611.328,-1000.000,0.000,0
1637814698.934,230.469,223.633,-167.969,-271.484,0.000,0
1637814698.938,-1000.000,-1000.000,-1000.000,-827.148,0.000,0
1637814698.942,-210.938,-196.777,-736.328,177.246,0.000,0
1637814698.946,-979.492,995.117,152.344,-1000.000,0.000,0
1637814698.950,-974.609,-920.410,626.953,-1000.000,0.000,0
1637814698.954,134.277,363.281,-103.027,-167.969,0.000,0
1637814698.957,-1000.000,-1000.000,-1000.000,-840.820,0.000,0
1637814698.961,-194.336,-259.766,-801.758,165.039,0.000,0
1637814698.965,989.746,986.328,130.371,-1000.000,0.000,0
1637814698.969,-924.805,-937.988,706.055,-1000.000,0.000,0
1637814698.973,424.316,554.688,6.836,-355.469,0.000,0
1637814698.977,-1000.000,-1000.000,-1000.000,-863.770,0.000,0
1637814698.981,-315.918,-470.215,-841.797,173.828,0.000,0
1637814698.985,974.609,940.430,-13.184,-1000.000,0.000,0
1637814698.989,-940.918,-966.309,604.492,-1000.000,0.000,0
1637814698.993,604.004,771.973,146.484,-555.176,0.000,0
1637814698.997,-1000.000,-773.926,-917.480,-955.078,0.000,0
1637814699.000,-541.504,-728.027,-920.898,403.320,0.000,0
1637814699.004,921.875,827.148,-79.102,-980.957,0.000,0
1637814699.008,-978.516,-986.816,582.031,-1000.000,0.000,0
1637814699.012,844.727,957.031,305.176,-768.555,0.000,0
1637814699.016,-651.367,-376.465,-723.145,813.965,0.000,0
1637814699.020,-826.172,-1000.000,-998.047,633.789,0.000,0
1637814699.024,758.789,536.621,-248.047,-916.016,0.000,0
1637814699.028,-991.699,-964.355,512.207,-1000.000,0.000,0
1637814699.032,-984.375,-973.145,386.719,-972.168,0.000,0
1637814699.036,-223.633,-68.359,-600.586,410.156,0.000,0
1637814699.039,-1000.000,-1000.000,-1000.000,937.500,0.000,0
1637814699.043,419.922,212.891,-354.980,-642.090,0.000,0
1637814699.047,-955.566,-948.730,428.223,-1000.000,0.000,0
1637814699.051,-962.402,-952.148,496.094,-1000.000,0.000,0
1637814699.055,20.508,145.020,-426.758,62.500,0.000,0
1637814699.059,-1000.000,-1000.000,-1000.000,-846.680,0.000,0
1637814699.063,138.672,-16.602,-481.934,-298.340,0.000,0
1637814699.066,-953.125,-963.867,354.492,-1000.000,0.000,0
1637814699.070,-945.312,-938.477,567.383,-1000.000,0.000,0
1637814699.075,235.352,234.375,-288.086,-162.109,0.000,0
1637814699.079,-1000.000,-1000.000,-1000.000,-820.801,0.000,0
1637814699.082,-89.355,-187.012,-595.703,-66.406,0.000,0
1637814699.086,-968.750,-992.676,299.316,-1000.000,0.000,0
1637814699.090,-934.570,-919.922,612.793,-1000.000,0.000,0
1637814699.094,231.445,224.121,-178.711,-270.508,0.000,0
1637814699.098,-1000.000,-1000.000,-1000.000,-826.660,0.000,0
1637814699.102,-203.613,-198.242,-619.141,147.949,0.000,0
1637814699.106,-997.559,997.070,287.598,-1000.000,0.000,0
1637814699.109,-918.457,-919.434,625.000,-1000.000,0.000,0
1637814699.113,222.656,326.660,-83.496,-257.812,0.000,0
1637814699.117,-1000.000,-1000.000,-1000.000,-829.102,0.000,0
1637814699.121,-194.824,-246.094,-783.691,165.039,0.000,0
1637814699.125,992.676,986.816,83.008,-1000.000,0.000,0
1637814699.129,-923.828,-934.082,658.691,-1000.000,0.000,0
1637814699.133,414.551,515.625,14.160,-355.469,0.000,0
1637814699.137,-1000.000,-1000.000,-1000.000,-863.770,0.000,0
1637814699.141,-303.711,-456.055,-846.680,173.828,0.000,0
1637814699.145,977.539,935.547,57.617,-1000.000,0.000,0
1637814699.148,-939.941,-950.684,673.828,-1000.000,0.000,0
1637814699.152,589.355,711.426,84.473,-544.434,0.000,0
1637814699.156,-1000.000,-851.562,-971.191,-948.730,0.000,0
1637814699.160,-525.391,-699.707,-893.066,350.098,0.000,0
1637814699.164,924.316,833.496,-74.707,-1000.000,0.000,0
1637814699.168,-974.121,-976.074,568.848,-1000.000,0.000,0
1637814699.172,822.266,915.039,237.305,-744.629,0.000,0
1637814699.176,-691.406,-458.984,-792.480,851.562,0.000,0
1637814699.180,-791.992,-995.117,-976.074,579.590,0.000,0
1637814699.183,785.156,559.082,-217.285,-940.430,0.000,0
1637814699.187,-990.723,-965.820,502.930,-1000.000,0.000,0
1637814699.191,998.047,-979.004,440.918,-942.383,0.000,0
1637814699.195,-281.738,-110.840,-545.898,491.699,0.000,0
1637814699.199,-1000.000,-1000.000,-1000.000,860.840,0.000,0
1637814699.203,486.816,241.699,-340.820,-727.539,0.000,0
1637814699.207,-960.938,-948.242,442.383,-1000.000,0.000,0
1637814699.210,-966.797,-955.078,481.445,-1000.000,0.000,0
1637814699.215,-17.090,108.887,-457.031,130.859,0.000,0
1637814699.219,-1000.000,-1000.000,-1000.000,-903.809,0.000,0
1637814699.223,172.363,9.277,-428.223,-409.180,0.000,0
1637814699.227,-949.219,-962.402,374.023,-1000.000,0.000,0
1637814699.230,-949.707,-939.941,571.777,-1000.000,0.000,0
1637814699.234,186.035,229.492,-278.809,-83.496,0.000,0
1637814699.238,-1000.000,-1000.000,-1000.000,-821.289,0.000,0
1637814699.242,-54.688,-180.176,-579.102,-151.367,0.000,0
1637814699.246,-966.797,-991.699,294.922,-1000.000,0.000,0
1637814699.250,-937.012,-920.898,652.832,-1000.000,0.000,0
1637814699.254,233.398,224.609,-156.738,-269.043,0.000,0
1637814699.257,-1000.000,-1000.000,-1000.000,-831.543,0.000,0
1637814699.262,-203.613,-200.684,-693.359,68.848,0.000,0
1637814699.266,-998.047,999.512,193.848,-1000.000,0.000,0
1637814699.270,-918.457,-918.457,628.906,-1000.000,0.000,0
1637814699.273,222.656,281.250,-111.328,-263.672,0.000,0
1637814699.277,-1000.000,-1000.000,-1000.000,-827.637,0.000,0
1637814699.281,-197.754,-229.980,-766.113,170.410,0.000,0
1637814699.285,995.117,987.305,117.188,-1000.000,0.000,0
1637814699.289,-919.434,-929.199,652.832,-1000.000,0.000,0
1637814699.293,347.656,468.750,-2.930,-255.859,0.000,0
1637814699.297,-1000.000,-1000.000,-1000.000,-830.078,0.000,0
1637814699.300,-244.141,-422.363,-831.543,160.645,0.000,0
1637814699.304,988.770,939.941,5.371,-1000.000,0.000,1
1637814699.309,-937.988,-941.406,626.465,-1000.000,0.000,0
1637814699.313,539.551,662.598,89.355,-458.496,0.000,0
1637814699.316,-1000.000,-915.527,-991.699,-903.320,0.000,0
1637814699.320,-460.938,-663.574,-902.832,288.086,0.000,0
1637814699.324,940.430,848.145,-36.621,-1000.000,0.000,0
1637814699.328,-961.914,-968.262,620.117,-1000.000,0.000,0
1637814699.332,753.906,873.535,232.422,-637.207,0.000,0
1637814699.336,-818.359,-540.039,-824.707,978.516,0.000,0
1637814699.340,-676.270,-960.449,-926.758,516.602,0.000,0
1637814699.343,881.348,593.750,-57.129,-951.172,0.000,0
1637814699.347,-994.141,-965.820,564.941,-1000.000,0.000,0
1637814699.351,950.684,-993.164,348.633,-876.953,0.000,0
1637814699.356,-413.574,-164.551,-629.395,615.234,0.000,0
1637814699.359,-986.328,-1000.000,-1000.000,802.246,0.000,0
1637814699.363,589.355,270.996,-313.965,-772.949,0.000,0
1637814699.367,-969.727,-947.754,459.473,-1000.000,0.000,0
1637814699.371,-975.098,-959.961,472.168,-992.676,0.000,0
1637814699.375,-90.820,65.430,-461.914,278.320,0.000,0
1637814699.379,-1000.000,-1000.000,-1000.000,-933.594,0.000,0
1637814699.383,235.840,36.133,-402.344,-453.613,0.000,0
1637814699.386,-945.801,-961.426,463.867,-1000.000,0.000,0
1637814699.390,-953.613,-940.918,562.500,-1000.000,0.000,0
1637814699.394,129.883,223.145,-354.492,-54.688,0.000,0
1637814699.398,-1000.000,-1000.000,-1000.000,-817.383,0.000,0
1637814699.402,14.648,-159.668,-531.250,-163.574,0.000,0
1637814699.406,-958.984,-987.305,331.055,-1000.000,0.000,0
1637814699.410,-943.359,-923.340,613.770,-1000.000,0.000,0
1637814699.414,237.793,226.074,-209.473,-269.531,0.000,0
1637814699.418,-1000.000,-1000.000,-1000.000,-831.543,0.000,0
1637814699.422,-203.613,-201.172,-660.156,68.848,0.000,0
1637814699.426,-998.047,-1000.000,233.887,-1000.000,0.000,0
1637814699.429,-918.457,-917.480,692.871,-1000.000,0.000,0
1637814699.433,222.656,268.555,-50.781,-263.672,0.000,0
1637814699.437,-1000.000,-1000.000,-1000.000,-827.148,0.000,0
1637814699.441,-198.242,-207.031,-764.648,170.410,0.000,0
1637814699.445,996.094,994.141,123.047,-1000.000,0.000,0
1637814699.449,-916.992,-929.688,647.461,-1000.000,0.000,0
1637814699.453,322.266,454.590,-27.344,-255.859,0.000,0
1637814699.457,-1000.000,-1000.000,-1000.000,-829.590,0.000,0
1637814699.461,-207.031,-380.371,-814.941,161.133,0.000,0
1637814699.465,998.047,955.078,46.387,-1000.000,0.000,0
1637814699.468,-939.453,-941.895,644.043,-1000.000,0.000,0
1637814699.472,521.973,636.230,90.820,-458.496,0.000,0
1637814699.476,-1000.000,-955.566,-988.281,-903.320,0.000,0
1637814699.480,-436.523,-609.375,-884.766,288.086,0.000,0
1637814699.484,947.754,884.766,-39.062,-1000.000,0.000,0
1637814699.488,-959.473,-966.309,593.750,-1000.000,0.000,0
1637814699.492,734.863,840.332,191.895,-637.207,0.000,0
1637814699.496,-846.680,-606.934,-847.168,978.516,0.000,0
1637814699.500,-669.922,-917.480,-963.379,514.648,0.000,0
1637814699.504,880.371,637.207,-147.949,-943.848,0.000,0
1637814699.507,-990.234,-964.355,570.312,-1000.000,0.000,0
1637814699.511,937.012,985.352,313.965,-820.801,0.000,0
1637814699.515,-439.453,-226.074,-703.613,703.613,0.000,0
1637814699.519,-984.375,-1000.000,-984.375,793.457,0.000,0
1637814699.523,589.844,296.875,-207.520,-779.785,0.000,0
1637814699.527,-970.703,-945.312,478.516,-1000.000,0.000,0
1637814699.531,-975.098,-966.309,445.801,-1000.000,0.000,0
1637814699.534,-91.309,18.555,-475.098,190.430,0.000,0
1637814699.538,-1000.000,-1000.000,-1000.000,-922.363,0.000,0
1637814699.543,235.840,68.359,-420.898,-453.613,0.000,0
1637814699.546,-945.312,-958.984,404.297,-1000.000,0.000,0
1637814699.550,-954.102,-943.848,538.086,-1000.000,0.000,0
1637814699.554,126.953,207.031,-354.004,-54.688,0.000,0
1637814699.558,-1000.000,-1000.000,-1000.000,-817.383,0.000,0
1637814699.562,15.137,-147.461,-518.555,-163.574,0.000,0
1637814699.566,-959.473,-986.328,401.855,-1000.000,0.000,0
1637814699.570,-942.871,-924.316,643.066,-1000.000,0.000,0
1637814699.573,237.793,226.562,-230.957,-269.531,0.000,0
1637814699.577,-1000.000,-1000.000,-1000.000,-831.543,0.000,0
1637814699.581,-203.613,-202.637,-610.352,68.848,0.000,0
1637814699.585,-998.047,-998.535,284.180,-1000.000,0.000,0
1637814699.589,-918.457,-917.480,630.371,-1000.000,0.000,0
1637814699.593,222.656,241.699,-133.789,-264.160,0.000,0
1637814699.597,-1000.000,-1000.000,-1000.000,-827.637,0.000,0
1637814699.601,-199.707,-198.242,-754.883,170.410,0.000,0
1637814699.605,997.559,995.605,114.746,-1000.000,0.000,0
1637814699.609,-916.992,-926.758,691.406,-1000.000,0.000,0
1637814699.612,299.316,407.715,9.277,-255.859,0.000,0
1637814699.616,-1000.000,-1000.000,-1000.000,-829.590,0.000,0
1637814699.620,-204.590,-362.305,-813.477,161.133,0.000,0
1637814699.624,997.070,953.125,57.129,-1000.000,0.000,0
1637814699.628,-936.035,-931.152,641.602,-1000.000,0.000,0
1637814699.632,490.234,581.543,30.762,-445.312,0.000,0
1637814699.636,-1000.000,-1000.000,-1000.000,-898.438,0.000,0
1637814699.640,-430.176,-591.309,-867.188,272.949,0.000,0
1637814699.644,940.918,878.906,-40.527,-1000.000,0.000,0
1637814699.648,-944.824,-950.684,595.215,-1000.000,0.000,0
1637814699.652,674.805,780.273,200.195,-623.047,0.000,0
1637814699.655,-912.109,-696.289,-846.191,990.234,0.000,0
1637814699.659,-656.250,-890.137,-956.543,491.699,0.000,0
1637814699.663,871.582,648.926,-144.531,-958.496,0.000,0
1637814699.667,-975.586,-960.449,561.523,-1000.000,0.000,0
1637814699.671,887.695,963.867,306.641,-855.957,0.000,0
1637814699.675,-516.113,-290.039,-709.473,664.062,0.000,0
1637814699.679,-975.098,-1000.000,-1000.000,741.211,0.000,0
1637814699.683,586.914,343.750,-282.227,-836.914,0.000,0
1637814699.687,-967.773,-947.754,486.816,-1000.000,0.000,0
1637814699.691,-984.375,-970.703,424.316,-1000.000,0.000,0
1637814699.695,-134.766,-14.648,-533.691,261.719,0.000,0
1637814699.698,-1000.000,-1000.000,-1000.000,-988.770,0.000,0
1637814699.702,255.859,96.680,-375.000,-547.363,0.000,0
1637814699.706,-944.824,-956.543,428.223,-1000.000,0.000,0
1637814699.710,-958.984,-946.289,527.832,-1000.000,0.000,0
1637814699.714,79.590,188.965,-366.699,-5.859,0.000,0
1637814699.718,-1000.000,-1000.000,-1000.000,-830.078,0.000,0
1637814699.722,37.109,-121.582,-523.438,-232.910,0.000,0
1637814699.725,-960.449,-981.934,351.074,-1000.000,0.000,0
1637814699.730,-942.871,-927.246,609.375,-1000.000,0.000,0
1637814699.734,237.305,228.516,-235.352,-215.332,0.000,0
1637814699.738,-1000.000,-1000.000,-1000.000,-828.125,0.000,0
1637814699.741,-187.988,-203.613,-634.277,-15.625,0.000,0
1637814699.745,-993.652,-997.070,271.484,-1000.000,0.000,0
1637814699.749,-920.898,-917.969,639.160,-1000.000,0.000,0
1637814699.753,223.633,222.656,-136.719,-269.531,0.000,0
1637814699.757,-1000.000,-1000.000,-1000.000,-826.172,0.000,0
1637814699.761,-203.125,-196.777,-681.152,170.410,0.000,0
1637814699.765,-998.535,995.117,210.449,-1000.000,0.000,0
1637814699.768,-918.457,-923.828,629.395,-1000.000,0.000,0
1637814699.772,236.328,367.676,-57.617,-255.859,0.000,0
1637814699.777,-1000.000,-1000.000,-1000.000,-829.590,0.000,0
1637814699.781,-196.289,-332.520,-808.594,164.551,0.000,0
1637814699.784,993.164,958.496,58.594,-1000.000,0.000,0
1637814699.788,-929.199,-928.223,654.297,-1000.000,0.000,0
1637814699.792,437.012,549.316,30.273,-365.234,0.000,0
1637814699.796,-1000.000,-1000.000,-1000.000,-867.676,0.000,0
1637814699.800,-384.277,-554.199,-867.676,175.293,0.000,0
1637814699.804,948.242,894.531,20.508,-1000.000,0.000,0
1637814699.808,-935.059,-950.684,662.598,-1000.000,0.000,0
1637814699.811,618.652,764.648,154.785,-555.176,0.000,0
1637814699.815,-983.398,-741.699,-889.160,-955.566,0.000,0
1637814699.819,-594.727,-828.125,-936.035,403.320,0.000,0
1637814699.823,894.043,718.262,-159.180,-980.957,0.000,0
1637814699.827,-972.168,-967.773,539.062,-1000.000,0.000,0
1637814699.831,850.098,954.102,302.734,-768.555,0.000,0
1637814699.835,-613.770,-330.078,-713.867,813.477,0.000,0
1637814699.839,-885.742,-1000.000,-997.559,636.719,0.000,0
1637814699.843,686.035,397.949,-251.953,-914.062,0.000,0
1637814699.847,-978.516,-950.684,496.582,-1000.000,0.000,0
1637814699.850,-990.234,-974.121,456.055,-970.703,0.000,0
1637814699.854,-214.844,-43.945,-513.672,406.250,0.000,0
1637814699.858,-1000.000,-1000.000,-1000.000,951.660,0.000,0
1637814699.862,367.188,132.324,-374.512,-623.535,0.000,0
1637814699.866,-951.172,-953.613,437.012,-1000.000,0.000,0
1637814699.870,-963.867,-948.242,512.207,-1000.000,0.000,0
1637814699.874,22.461,170.410,-396.484,57.617,0.000,0
1637814699.878,-1000.000,-1000.000,-1000.000,-831.055,0.000,0
1637814699.882,105.957,-83.008,-476.562,-269.531,0.000,0
1637814699.886,-956.543,-974.609,341.797,-1000.000,0.000,0
1637814699.890,-944.824,-931.641,595.703,-1000.000,0.000,0
1637814699.894,235.840,231.445,-219.238,-163.574,0.000,0
1637814699.897,-1000.000,-1000.000,-1000.000,-817.871,0.000,0
1637814699.901,-121.094,-203.613,-627.930,-48.340,0.000,0
1637814699.905,-976.074,-997.070,267.090,-1000.000,0.000,0
1637814699.909,-930.176,-917.969,625.977,-1000.000,0.000,0
1637814699.913,229.004,223.145,-166.016,-270.996,0.000,0
1637814699.917,-1000.000,-1000.000,-1000.000,-825.195,0.000,0
1637814699.921,-203.613,-197.266,-735.840,170.410,0.000,0
1637814699.925,-998.047,995.605,152.832,-1000.000,0.000,0
1637814699.929,-918.457,-921.875,644.531,-1000.000,0.000,0
1637814699.933,222.656,355.957,-65.430,-255.859,0.000,0
1637814699.936,-1000.000,-1000.000,-1000.000,-829.590,0.000,0
1637814699.940,-194.336,-285.156,-788.574,165.039,0.000,0
1637814699.944,992.188,976.074,89.844,-1000.000,0.000,0
1637814699.948,-925.293,-933.105,639.648,-1000.000,0.000,0
1637814699.952,424.805,541.992,14.648,-355.469,0.000,0
1637814699.956,-1000.000,-1000.000,-1000.000,-863.770,0.000,0
1637814699.960,-321.777,-506.836,-852.539,173.828,0.000,0
1637814699.964,972.168,918.457,-11.230,-1000.000,0.000,0
1637814699.968,-939.941,-954.102,627.441,-1000.000,0.000,0
1637814699.972,604.004,747.559,159.180,-555.176,0.000,0
1637814699.975,-1000.000,-784.180,-924.316,-955.078,0.000,0
1637814699.979,-549.805,-775.391,-926.270,403.320,0.000,0
1637814699.983,917.480,771.484,-30.762,-980.957,0.000,0
1637814699.987,-977.051,-969.727,634.277,-1000.000,0.000,0
1637814699.991,843.262,933.594,271.484,-768.555,0.000,0
1637814699.995,-648.438,-389.648,-738.281,813.477,0.000,0
1637814699.999,-837.402,-1000.000,-987.793,636.719,0.000,0
1637814700.002,746.094,462.402,-260.742,-914.062,0.000,0
1637814700.006,-989.258,-954.590,475.586,-1000.000,0.000,0
1637814700.011,-984.863,-979.004,402.832,-970.703,0.000,0
1637814700.015,-223.633,-75.195,-560.547,406.250,0.000,0
1637814700.019,-1000.000,-1000.000,-1000.000,951.172,0.000,0
1637814700.023,419.922,166.992,-365.723,-623.535,0.000,0
1637814700.026,-955.078,-949.707,419.434,-1000.000,0.000,0
1637814700.030,-963.379,-951.660,534.668,-1000.000,0.000,0
1637814700.034,21.484,141.113,-367.676,57.617,0.000,0
1637814700.038,-1000.000,-1000.000,-1000.000,-831.055,0.000,0
1637814700.042,129.883,-41.992,-450.195,-269.531,0.000,0
1637814700.046,-953.613,-968.750,394.531,-1000.000,0.000,0
1637814700.050,-945.801,-935.547,595.215,-1000.000,0.000,1
1637814700.053,235.840,233.398,-245.117,-163.574,0.000,0
1637814700.058,-1000.000,-1000.000,-1000.000,-817.871,0.000,0
1637814700.062,-102.539,-196.289,-585.449,-48.340,0.000,0
1637814700.066,-971.191,-995.117,281.250,-1000.000,0.000,0
1637814700.069,-933.105,-918.945,622.559,-1000.000,0.000,0
1637814700.073,230.469,223.633,-169.922,-271.484,0.000,0
1637814700.077,-1000.000,-1000.000,-1000.000,-825.684,0.000,0
1637814700.081,-203.613,-198.730,-729.004,170.410,0.000,0
1637814700.085,-998.047,997.070,159.668,-1000.000,0.000,0
1637814700.089,-918.945,-920.410,688.965,-1000.000,0.000,0
1637814700.093,222.656,325.195,-50.781,-255.859,0.000,0
1637814700.096,-1000.000,-1000.000,-1000.000,-830.078,0.000,0
1637814700.100,-194.336,-265.625,-786.133,165.039,0.000,0
1637814700.105,992.188,979.004,134.766,-1000.000,0.000,0
1637814700.109,-925.293,-931.152,680.664,-1000.000,0.000,0
1637814700.112,424.805,515.137,-0.977,-355.469,0.000,0
1637814700.116,-1000.000,-1000.000,-1000.000,-863.770,0.000,0
1637814700.120,-321.777,-479.492,-841.797,173.828,0.000,0
1637814700.124,972.656,923.340,22.949,-1000.000,0.000,0
1637814700.128,-938.965,-945.801,630.371,-1000.000,0.000,0
1637814700.132,592.773,706.543,135.254,-554.688,0.000,0
1637814700.136,-1000.000,-844.727,-921.875,-955.078,0.000,0
1637814700.139,-547.363,-734.863,-924.805,383.789,0.000,0
1637814700.143,915.039,796.875,-106.445,-989.258,0.000,0
1637814700.147,-971.680,-968.262,573.242,-1000.000,0.000,0
1637814700.152,825.684,909.668,243.652,-770.020,0.000,0
1637814700.155,-671.875,-451.660,-784.668,816.895,0.000,0
1637814700.159,-833.496,-1000.000,-985.840,612.793,0.000,0
1637814700.163,743.164,518.555,-218.262,-929.199,0.000,0
1637814700.167,-984.375,-960.449,523.926,-1000.000,0.000,0
1637814700.171,-999.512,-981.445,401.367,-976.074,0.000,0
1637814700.175,-251.953,-105.957,-590.332,416.992,0.000,0
1637814700.179,-1000.000,-1000.000,-1000.000,913.574,0.000,0
1637814700.182,419.434,211.914,-280.273,-671.387,0.000,0
1637814700.186,-954.102,-948.730,442.383,-1000.000,0.000,0
1637814700.190,-966.309,-954.102,481.934,-1000.000,0.000,0
1637814700.194,1.953,114.746,-423.828,85.938,0.000,0
1637814700.198,-1000.000,-1000.000,-1000.000,-868.164,0.000,0
1637814700.202,137.695,-8.789,-463.379,-339.355,0.000,0
1637814700.206,-952.637,-965.820,372.559,-1000.000,0.000,0
1637814700.210,-947.754,-937.988,573.730,-1000.000,0.000,0
1637814700.214,213.867,234.863,-283.691,-132.324,0.000,0
1637814700.218,-1000.000,-1000.000,-1000.000,-822.266,0.000,0
1637814700.221,-91.797,-187.988,-541.504,-102.051,0.000,0
1637814700.225,-971.191,-993.164,416.992,-1000.000,0.000,0
1637814700.229,-933.594,-919.922,650.391,-1000.000,0.000,0
1637814700.233,230.957,224.121,-199.219,-269.531,0.000,0
1637814700.237,-1000.000,-1000.000,-1000.000,-829.102,0.000,0
1637814700.241,-204.102,-200.195,-684.082,112.305,0.000,0
1637814700.245,-997.559,999.023,186.523,-1000.000,0.000,0
1637814700.249,-918.945,-918.945,634.766,-1000.000,0.000,0
1637814700.253,222.168,289.551,-96.191,-260.254,0.000,0
1637814700.257,-1000.000,-1000.000,-1000.000,-828.613,0.000,0
1637814700.261,-196.777,-242.188,-768.066,168.457,0.000,0
1637814700.264,994.629,983.887,110.352,-1000.000,0.000,0
1637814700.268,-922.363,-929.199,684.082,-1000.000,0.000,0
1637814700.272,371.094,476.074,47.852,-290.039,0.000,0
