timestamps,TP9,AF7,AF8,TP10,Right AUX,Marker0
1634634568.985,-0.488,-0.488,0.000,0.000,0.000,0
1634634568.989,-0.488,-0.488,-12.207,0.000,0.000,0
1634634568.993,30.762,30.762,35.156,-32.227,0.000,0
1634634568.997,-67.871,-55.664,-46.387,67.871,0.000,0
1634634569.001,383.789,333.008,59.570,-332.031,0.000,0
1634634569.005,928.223,-956.543,728.027,-1000.000,0.000,0
1634634569.008,-861.816,858.887,946.777,-240.723,0.000,0
1634634569.012,155.762,-475.586,308.105,979.492,0.000,0
1634634569.016,-1000.000,-1000.000,-291.016,-919.434,0.000,0
1634634569.020,386.230,-119.629,317.383,230.957,0.000,0
1634634569.024,-946.289,-975.098,801.758,-1000.000,0.000,0
1634634569.028,-949.219,-984.863,812.500,-399.902,0.000,0
1634634569.031,225.098,-158.203,204.102,927.246,0.000,0
1634634569.035,-1000.000,-1000.000,-796.875,-899.902,0.000,0
1634634569.039,102.539,-171.387,-76.660,218.750,0.000,0
1634634569.043,-938.477,993.652,720.703,-1000.000,0.000,0
1634634569.047,-950.195,-930.176,731.934,-575.684,0.000,0
1634634569.050,235.352,39.551,128.906,816.406,0.000,0
1634634569.054,-1000.000,-1000.000,-980.469,-858.887,0.000,0
1634634569.058,-88.379,-179.688,-209.473,283.203,0.000,0
1634634569.062,-980.469,990.234,630.371,-1000.000,0.000,0
1634634569.066,-935.547,-919.922,672.852,-848.145,0.000,0
1634634569.070,426.758,217.285,100.098,503.418,0.000,0
1634634569.073,-1000.000,-1000.000,-929.688,-811.523,0.000,0
1634634569.078,-222.168,-305.176,-393.066,436.523,0.000,0
1634634569.082,-993.652,966.309,414.062,-918.945,0.000,0
1634634569.086,-942.871,-913.574,660.645,-1000.000,0.000,0
1634634569.090,599.609,226.562,148.926,172.363,0.000,0
1634634569.094,-1000.000,-1000.000,-904.297,-824.219,0.000,0
1634634569.098,-261.230,-487.305,-616.211,652.832,0.000,0
1634634569.102,-958.984,880.371,301.758,-695.312,0.000,0
1634634569.105,986.328,-881.836,629.883,-1000.000,0.000,0
1634634569.109,863.770,215.820,184.570,6.348,0.000,0
1634634569.113,-708.008,-1000.000,-794.434,-912.598,0.000,0
1634634569.117,-321.289,-698.730,-762.207,896.973,0.000,0
1634634569.121,-922.852,678.223,157.227,-352.539,0.000,0
1634634569.129,913.086,-833.496,549.316,-1000.000,0.000,0
1634634569.133,-920.410,346.191,178.223,-173.340,0.000,0
1634634569.137,-358.398,-1000.000,-662.109,-1000.000,0.000,0
1634634569.141,-552.246,-954.102,-906.250,-951.660,0.000,0
1634634569.145,-989.258,366.211,-60.059,-83.496,0.000,0
1634634569.150,927.734,-803.223,461.914,-1000.000,0.000,0
1634634569.154,-890.625,493.652,275.879,-171.387,0.000,0
1634634569.158,-156.738,-871.582,-440.918,989.258,0.000,0
1634634569.162,-719.238,-1000.000,-1000.000,-919.434,0.000,0
1634634569.166,901.367,107.910,-175.781,121.582,0.000,0
1634634569.170,959.961,-853.516,469.727,-1000.000,0.000,0
1634634569.174,-904.785,741.211,216.309,-188.965,0.000,0
1634634569.186,83.008,-580.078,-436.523,995.605,0.000,0
1634634569.190,-951.172,-1000.000,-1000.000,-924.316,0.000,0
1634634569.194,569.336,-52.246,-251.465,231.934,0.000,0
1634634569.198,-973.145,-944.336,458.496,-1000.000,0.000,0
1634634569.202,-939.941,965.332,244.141,-380.371,0.000,0
1634634569.207,215.332,-245.117,-339.355,935.547,0.000,0
1634634569.211,-1000.000,-1000.000,-1000.000,-902.344,0.000,0
1634634569.215,204.102,-171.387,-336.426,220.703,0.000,0
1634634569.219,-932.617,997.070,389.160,-1000.000,0.000,0
1634634569.223,-952.148,-940.430,252.441,-539.551,0.000,0
1634634569.228,231.445,-24.902,-254.883,841.797,0.000,0
1634634569.232,-1000.000,-1000.000,-1000.000,-868.164,0.000,0
1634634569.247,5.371,-174.316,-539.551,267.090,0.000,0
1634634569.251,-958.008,988.770,316.895,-1000.000,0.000,0
1634634569.255,-944.336,-918.457,430.664,-782.227,0.000,0
1634634569.260,337.402,179.688,-156.250,585.938,0.000,0
1634634569.264,-1000.000,-1000.000,-1000.000,-822.754,0.000,0
1634634569.268,-207.031,-240.723,-643.555,401.367,0.000,0
1634634569.273,998.047,984.375,164.062,-968.750,0.000,0
1634634569.277,-929.688,-920.410,413.574,-1000.000,0.000,0
1634634569.281,511.230,230.469,-90.820,301.758,0.000,0
1634634569.286,-1000.000,-1000.000,-1000.000,-809.570,0.000,0
1634634569.290,-240.723,-430.176,-725.586,550.293,0.000,0
1634634569.295,-977.051,911.621,112.793,-819.336,0.000,0
1634634569.311,-977.539,-893.555,466.309,-1000.000,0.000,0
1634634569.316,738.770,214.355,-46.387,90.820,0.000,0
1634634569.320,-871.582,-1000.000,-1000.000,-867.188,0.000,0
1634634569.325,-292.969,-608.887,-808.594,787.109,0.000,0
1634634569.329,-939.453,777.832,24.902,-545.898,0.000,0
1634634569.334,943.848,-852.539,429.199,-1000.000,0.000,0
1634634569.338,985.352,304.199,13.184,8.789,0.000,0
1634634569.343,-534.180,-1000.000,-837.402,-974.121,0.000,0
1634634569.347,-525.391,-867.676,-889.648,-993.164,0.000,0
1634634569.352,-984.375,481.934,-8.301,-175.293,0.000,0
1634634569.356,928.223,-811.523,447.266,-1000.000,0.000,0
1634634569.361,-902.344,448.242,47.363,-169.922,0.000,0
1634634569.388,-230.469,-910.645,-708.984,993.652,0.000,0
1634634569.393,-694.824,-1000.000,-1000.000,-932.617,0.000,0
1634634569.398,919.434,165.527,-209.961,19.043,0.000,0
1634634569.403,968.262,-811.035,414.551,-1000.000,0.000,0
1634634569.408,-951.172,611.328,103.027,-176.270,0.000,0
1634634569.412,-66.895,-760.254,-573.730,987.793,0.000,0
1634634569.417,-848.633,-1000.000,-1000.000,-918.945,0.000,0
1634634569.422,705.078,12.695,-270.996,229.004,0.000,0
1634634569.427,998.047,-910.645,416.992,-1000.000,0.000,0
1634634569.432,-922.363,887.695,179.688,-303.223,0.000,0
1634634569.436,183.594,-362.305,-420.898,969.238,0.000,0
1634634569.441,-1000.000,-1000.000,-1000.000,-914.551,0.000,0
1634634569.459,386.719,-163.574,-321.289,227.051,0.000,0
1634634569.464,-946.289,-994.141,395.508,-1000.000,0.000,0
1634634569.469,-949.219,-958.984,192.871,-492.676,0.000,0
1634634569.474,225.098,-101.562,-337.891,878.906,0.000,0
1634634569.479,-1000.000,-1000.000,-1000.000,-880.859,0.000,0
1634634569.484,104.492,-172.363,-452.148,202.148,0.000,0
1634634569.489,-940.918,991.211,308.594,-1000.000,0.000,0
1634634569.494,-950.195,-923.340,292.480,-710.449,0.000,0
1634634569.499,274.414,90.332,-227.051,660.645,0.000,0
1634634569.504,-1000.000,-1000.000,-1000.000,-830.566,0.000,0
1634634569.509,-99.121,-185.059,-635.254,362.305,0.000,0
1634634569.514,-978.516,993.164,183.594,-1000.000,0.000,0
1634634569.524,-936.035,-922.852,410.645,-958.984,0.000,0
1634634569.529,433.105,231.934,-119.629,363.770,0.000,0
1634634569.534,-1000.000,-1000.000,-1000.000,-806.641,0.000,0
1634634569.539,-223.633,-366.699,-701.660,518.555,0.000,0
1634634569.544,-993.164,941.895,125.000,-854.980,0.000,0
1634634569.549,-943.359,-904.297,464.844,-1000.000,0.000,0
1634634569.554,599.609,221.680,-43.945,105.957,0.000,0
1634634569.559,-1000.000,-1000.000,-1000.000,-860.840,0.000,0
1634634569.564,-260.742,-540.039,-772.461,763.184,0.000,0
1634634569.569,-958.496,843.262,64.941,-554.199,0.000,0
1634634569.574,980.957,-868.652,435.547,-1000.000,0.000,0
1634634569.579,870.117,249.512,95.215,-38.086,0.000,0
1634634569.583,-709.961,-1000.000,-812.500,-943.359,0.000,0
1634634569.588,-420.898,-776.855,-893.555,968.262,0.000,0
1634634569.593,-956.055,586.914,-95.703,-235.352,0.000,0
1634634569.598,924.805,-822.266,412.109,-1000.000,0.000,0
1634634569.603,-922.363,400.879,64.453,-172.363,0.000,0
1634634569.608,-341.309,-962.891,-755.371,998.047,0.000,0
1634634569.613,-645.996,-1000.000,-975.586,-942.383,0.000,0
1634634569.618,964.355,276.367,-178.223,-33.691,0.000,0
1634634569.623,942.383,-813.477,401.855,-1000.000,0.000,0
1634634569.628,-901.367,577.148,83.984,-176.270,0.000,0
1634634569.633,-89.355,-786.133,-614.746,991.699,0.000,0
1634634569.638,-854.492,-1000.000,-1000.000,-919.434,0.000,0
1634634569.636,750.488,67.871,-252.930,133.301,0.000,0
1634634569.641,988.281,-879.395,411.621,-1000.000,0.000,0
1634634569.646,-919.922,813.477,140.137,-190.918,0.000,2
1634634569.651,184.082,-476.562,-484.863,996.094,0.000,0
1634634569.656,-1000.000,-1000.000,-1000.000,-925.293,0.000,0
1634634569.661,386.230,-96.191,-293.945,232.910,0.000,0
1634634569.666,-946.777,-967.773,481.445,-1000.000,0.000,0
1634634569.671,-947.754,-991.699,259.277,-399.414,0.000,0
1634634569.676,222.168,-164.062,-385.254,927.734,0.000,0
1634634569.681,-1000.000,-1000.000,-1000.000,-899.902,0.000,0
1634634569.686,123.535,-171.875,-425.293,218.750,0.000,0
1634634569.691,-937.988,994.629,303.711,-1000.000,0.000,0
1634634569.685,-948.730,-932.129,224.121,-575.684,0.000,0
1634634569.690,231.445,27.344,-271.973,816.406,0.000,0
1634634569.695,-1000.000,-1000.000,-1000.000,-858.887,0.000,0
1634634569.700,-37.109,-178.711,-588.867,283.203,0.000,0
1634634569.705,-970.703,989.746,210.938,-1000.000,0.000,0
1634634569.709,-941.406,-919.922,359.863,-848.145,0.000,0
1634634569.714,430.176,210.938,-151.855,503.418,0.000,0
1634634569.719,-1000.000,-1000.000,-1000.000,-812.012,0.000,0
1634634569.724,-222.168,-291.504,-666.016,436.523,0.000,0
1634634569.729,-994.141,970.703,166.992,-918.945,0.000,0
1634634569.734,-943.359,-915.039,424.316,-1000.000,0.000,0
1634634569.739,599.609,227.539,-94.238,172.363,0.000,0
1634634569.730,-1000.000,-1000.000,-1000.000,-824.219,0.000,0
1634634569.734,-258.789,-479.980,-720.703,652.832,0.000,0
1634634569.739,-968.750,885.254,125.000,-695.312,0.000,0
1634634569.744,-986.816,-883.301,449.707,-1000.000,0.000,0
1634634569.749,776.855,207.520,-44.434,6.348,0.000,0
1634634569.754,-836.426,-1000.000,-975.586,-912.598,0.000,0
1634634569.758,-302.246,-684.082,-835.938,896.973,0.000,0
1634634569.763,-930.664,692.871,-42.480,-352.539,0.000,0
1634634569.768,926.758,-835.938,417.480,-1000.000,0.000,0
1634634569.773,-968.262,336.914,13.672,-172.363,0.000,0
1634634569.777,-448.730,-1000.000,-824.707,-1000.000,0.000,0
1634634569.782,-544.922,-939.941,-940.430,-951.660,0.000,0
1634634569.771,-990.723,384.766,-159.180,-83.496,0.000,0
1634634569.775,931.152,-811.523,393.555,-1000.000,0.000,0
1634634569.780,-900.879,511.719,89.355,-202.148,0.000,0
1634634569.785,-210.449,-930.664,-731.445,-940.430,0.000,0
1634634569.789,-726.074,-975.586,-884.766,900.391,0.000,0
1634634569.794,904.785,395.996,35.156,-255.859,0.000,0
1634634569.799,958.984,-871.094,344.238,-1000.000,0.000,0
1634634569.803,-906.738,725.586,138.184,-177.246,0.000,0
1634634569.808,49.316,-583.008,-477.539,979.980,0.000,0
1634634569.813,-959.961,-1000.000,-1000.000,-922.852,0.000,0
1634634569.817,574.219,-43.457,-278.809,230.957,0.000,0
1634634569.822,-976.074,-940.918,395.996,-1000.000,0.000,0
1634634569.808,-938.965,958.496,193.848,-356.445,0.000,0
1634634569.813,215.332,-254.883,-349.609,945.801,0.000,0
1634634569.818,-1000.000,-1000.000,-1000.000,-906.250,0.000,0
1634634569.822,204.102,-171.387,-392.090,222.656,0.000,0
1634634569.827,-932.617,996.582,409.668,-1000.000,0.000,0
1634634569.831,-952.637,-940.918,323.242,-528.809,0.000,0
1634634569.836,231.445,-27.832,-286.133,851.562,0.000,0
1634634569.840,-1000.000,-1000.000,-1000.000,-871.582,0.000,0
1634634569.845,5.371,-174.316,-471.191,245.117,0.000,0
1634634569.850,-957.520,989.258,296.387,-1000.000,0.000,0
1634634569.854,-944.336,-918.457,273.926,-737.305,0.000,0
1634634569.859,336.914,172.852,-215.332,639.160,0.000,0
1634634569.844,-1000.000,-1000.000,-1000.000,-828.613,0.000,0
1634634569.848,-207.031,-230.469,-649.902,369.629,0.000,0
1634634569.852,998.047,987.305,107.422,-994.629,0.000,0
1634634569.857,-930.176,-921.387,365.723,-977.539,0.000,0
1634634569.861,511.230,230.957,-75.684,338.867,0.000,0
1634634569.866,-1000.000,-1000.000,-1000.000,-803.711,0.000,0
1634634569.870,-240.723,-422.852,-745.605,517.090,0.000,0
1634634569.875,-977.051,915.527,99.609,-853.027,0.000,0
1634634569.879,-978.027,-895.020,506.836,-1000.000,0.000,0
1634634569.884,738.770,215.820,-26.367,89.355,0.000,0
1634634569.888,-871.582,-1000.000,-1000.000,-865.723,0.000,0
1634634569.893,-293.457,-593.262,-765.137,779.785,0.000,0
1634634569.879,-939.453,795.898,105.469,-527.344,0.000,0
1634634569.883,944.336,-855.957,454.590,-1000.000,0.000,0
1634634569.888,984.863,301.758,1.953,-79.102,0.000,0
1634634569.892,-534.668,-1000.000,-838.379,-963.379,0.000,0
1634634569.897,-507.324,-854.980,-866.211,-993.164,0.000,0
1634634569.901,-976.562,500.977,-105.469,-177.246,0.000,0
1634634569.905,925.293,-811.523,407.227,-1000.000,0.000,0
1634634569.910,-900.879,430.176,135.742,-169.922,0.000,0
1634634569.914,-232.422,-921.387,-616.699,994.141,0.000,0
1634634569.918,-685.059,-1000.000,-1000.000,-932.129,0.000,0
1634634569.923,931.641,169.434,-237.305,19.043,0.000,0
1634634569.927,950.684,-814.453,405.273,-1000.000,0.000,0
1634634569.915,-896.484,613.281,58.105,-176.270,0.000,0
1634634569.919,-16.113,-740.723,-629.395,987.793,0.000,0
1634634569.924,-845.703,-1000.000,-1000.000,-918.457,0.000,0
1634634569.928,735.352,13.184,-281.738,229.004,0.000,0
1634634569.932,994.629,-911.133,405.762,-1000.000,0.000,0
1634634569.937,-920.898,893.555,165.527,-303.223,0.000,0
1634634569.941,184.082,-354.492,-421.875,969.238,0.000,0
1634634569.945,-1000.000,-1000.000,-1000.000,-914.551,0.000,0
1634634569.950,386.230,-153.809,-292.969,226.562,0.000,0
1634634569.954,-946.289,-991.699,411.133,-1000.000,0.000,0
1634634569.958,-949.219,-958.984,260.254,-483.887,0.000,0
1634634569.962,225.098,-96.680,-256.836,883.301,0.000,0
1634634569.952,-1000.000,-1000.000,-1000.000,-882.812,0.000,0
1634634569.956,104.004,-172.363,-445.312,203.125,0.000,0
1634634569.960,-940.430,991.699,332.520,-1000.000,0.000,0
1634634569.964,-950.195,-923.340,284.180,-710.449,0.000,0
1634634569.969,262.695,90.820,-234.375,661.133,0.000,0
1634634569.973,-1000.000,-1000.000,-1000.000,-830.566,0.000,0
1634634569.977,-97.168,-185.059,-574.707,360.352,0.000,0
1634634569.981,-979.004,993.164,201.172,-1000.000,0.000,0
1634634569.986,-935.547,-922.363,308.594,-953.125,0.000,0
1634634569.990,426.270,231.445,-156.738,371.582,0.000,0
1634634569.994,-1000.000,-1000.000,-1000.000,-808.105,0.000,0
1634634569.998,-222.168,-360.352,-712.891,518.555,0.000,0
1634634569.989,-994.141,944.336,77.148,-858.887,0.000,0
1634634569.993,-943.359,-905.273,403.320,-1000.000,0.000,0
1634634569.997,599.609,222.168,-68.848,128.418,0.000,0
1634634570.001,-1000.000,-1000.000,-1000.000,-860.840,0.000,0
1634634570.006,-261.230,-535.645,-771.484,769.531,0.000,0
1634634570.010,-958.984,846.191,57.129,-548.828,0.000,0
1634634570.014,980.957,-869.629,468.262,-1000.000,0.000,0
1634634570.018,870.117,249.512,-13.672,-4.883,0.000,0
1634634570.022,-709.961,-1000.000,-949.219,-938.965,0.000,0
1634634570.027,-420.898,-772.949,-850.586,970.215,0.000,0
1634634570.031,-956.543,592.773,-48.828,-222.168,0.000,0
1634634570.035,924.316,-822.754,405.273,-1000.000,0.000,0
1634634570.028,-922.363,397.461,44.922,-174.805,0.000,0
1634634570.032,-341.309,-966.797,-765.625,-998.047,0.000,0
1634634570.036,-645.996,-1000.000,-981.445,-948.242,0.000,0
1634634570.040,964.355,283.691,-194.824,-64.453,0.000,0
1634634570.045,942.383,-811.035,369.629,-1000.000,0.000,0
1634634570.049,-900.879,561.523,136.230,-173.340,0.000,0
1634634570.053,-89.355,-799.805,-530.273,990.234,0.000,0
1634634570.057,-854.492,-1000.000,-1000.000,-919.922,0.000,0
1634634570.061,750.488,69.824,-269.531,121.582,0.000,0
1634634570.065,988.281,-880.371,389.648,-1000.000,0.000,0
1634634570.069,-919.922,818.359,103.027,-188.965,0.000,0
1634634570.073,184.082,-469.238,-510.254,995.117,0.000,0
1634634570.067,-1000.000,-1000.000,-1000.000,-925.293,0.000,0
1634634570.071,386.719,-93.262,-280.273,232.910,0.000,0
1634634570.076,-946.777,-968.750,409.668,-1000.000,0.000,0
1634634570.080,-947.266,-987.793,157.227,-399.414,0.000,0
1634634570.084,222.168,-154.297,-380.371,927.734,0.000,0
1634634570.088,-1000.000,-1000.000,-1000.000,-899.414,0.000,0
1634634570.092,125.488,-172.363,-401.367,218.750,0.000,0
1634634570.096,-937.500,994.629,327.637,-1000.000,0.000,0
1634634570.100,-948.730,-932.129,273.926,-575.684,0.000,0
1634634570.104,231.445,30.273,-199.707,816.406,0.000,0
1634634570.108,-1000.000,-1000.000,-1000.000,-858.887,0.000,0
1634634570.112,-36.133,-179.199,-616.699,283.203,0.000,0
1634634570.107,-970.215,990.234,197.754,-1000.000,0.000,0
1634634570.111,-941.406,-919.922,345.703,-848.145,0.000,0
1634634570.115,430.176,209.473,-180.664,503.418,0.000,0
1634634570.119,-1000.000,-1000.000,-1000.000,-811.523,0.000,0
1634634570.123,-222.168,-292.480,-684.570,436.523,0.000,0
1634634570.127,-994.141,970.215,127.930,-918.945,0.000,0
1634634570.132,-943.359,-915.039,402.832,-1000.000,0.000,0
1634634570.136,599.609,227.539,-107.910,172.363,0.000,0
1634634570.140,-1000.000,-1000.000,-1000.000,-824.219,0.000,0
1634634570.144,-260.742,-477.539,-726.074,652.832,0.000,0
1634634570.148,-960.449,886.230,65.918,-695.312,0.000,0
1634634570.152,990.723,-883.789,453.613,-1000.000,0.000,0
1634634570.147,846.680,211.426,-8.789,5.859,0.000,0
1634634570.151,-729.980,-1000.000,-963.867,-912.598,0.000,0
1634634570.155,-316.406,-684.570,-845.703,897.461,0.000,0
1634634570.159,-930.176,692.871,-41.016,-353.027,0.000,0
1634634570.163,929.688,-835.938,439.453,-1000.000,0.000,0
1634634570.167,-967.285,336.914,70.801,-166.016,0.000,0
1634634570.171,-446.289,-1000.000,-799.805,-998.047,0.000,0
1634634570.175,-544.922,-942.871,-931.152,-953.125,0.000,0
1634634570.180,-992.188,379.883,-116.699,-83.008,0.000,0
1634634570.184,933.105,-804.199,393.066,-1000.000,0.000,0
1634634570.188,-903.320,490.234,52.246,-172.363,0.000,0
1634634570.192,-224.609,-875.977,-678.223,990.234,0.000,0
1634634570.188,-728.027,-1000.000,-1000.000,-920.898,0.000,0
1634634570.192,906.250,117.676,-258.301,111.328,0.000,0
1634634570.196,958.008,-850.586,378.906,-1000.000,0.000,0
1634634570.200,-906.250,733.398,140.625,-187.988,0.000,0
1634634570.204,49.316,-590.820,-494.629,994.629,0.000,0
1634634570.208,-959.961,-1000.000,-1000.000,-922.852,0.000,0
1634634570.212,574.219,-42.480,-291.016,230.957,0.000,0
1634634570.216,-976.074,-942.383,472.168,-1000.000,0.000,0
1634634570.220,-938.965,962.402,238.281,-354.004,0.000,0
1634634570.224,215.332,-247.559,-406.250,947.266,0.000,0
1634634570.228,-1000.000,-1000.000,-1000.000,-906.250,0.000,0
1634634570.232,204.102,-171.875,-347.168,222.656,0.000,0
1634634570.228,-932.617,997.070,373.047,-1000.000,0.000,0
1634634570.232,-952.148,-941.406,229.980,-520.996,0.000,0
1634634570.236,231.445,-29.785,-276.855,856.934,0.000,0
1634634570.240,-1000.000,-1000.000,-1000.000,-874.023,0.000,0
1634634570.244,5.371,-174.316,-525.879,234.863,0.000,0
1634634570.248,-958.008,988.770,248.535,-1000.000,0.000,0
1634634570.252,-943.848,-918.457,315.430,-732.910,0.000,0
1634634570.256,336.914,169.922,-144.043,642.090,0.000,0
1634634570.260,-1000.000,-1000.000,-1000.000,-828.125,0.000,0
1634634570.264,-207.031,-228.027,-679.199,360.352,0.000,0
1634634570.268,998.047,987.793,150.879,-999.512,0.000,0
1634634570.272,-930.176,-921.387,397.461,-975.586,0.000,0
1634634570.269,511.230,230.957,-121.094,337.891,0.000,0
1634634570.273,-1000.000,-1000.000,-1000.000,-803.223,0.000,0
1634634570.277,-240.723,-420.410,-728.027,517.090,0.000,0
1634634570.281,-977.051,916.504,84.473,-853.027,0.000,0
1634634570.285,-977.539,-895.508,425.781,-1000.000,0.000,0
1634634570.289,738.770,216.309,-61.523,89.355,0.000,0
1634634570.293,-871.582,-1000.000,-994.629,-866.211,0.000,0
1634634570.297,-292.969,-588.379,-774.902,779.785,0.000,0
1634634570.301,-939.453,801.270,-3.906,-527.344,0.000,0
1634634570.305,944.824,-856.934,444.824,-1000.000,0.000,0
1634634570.309,984.375,301.270,46.387,-79.102,0.000,0
1634634570.313,-535.156,-1000.000,-857.422,-963.379,0.000,0
1634634570.310,-498.047,-852.051,-916.504,-993.164,0.000,0
1634634570.314,-972.656,504.395,-111.816,-177.246,0.000,0
1634634570.318,923.828,-813.477,428.711,-1000.000,0.000,0
1634634570.322,-899.902,441.406,66.406,-169.922,0.000,0
1634634570.326,-234.863,-917.480,-721.191,993.652,0.000,0
1634634570.330,-665.527,-1000.000,-1000.000,-932.129,0.000,0
1634634570.334,946.289,185.059,-178.223,19.043,0.000,0
1634634570.338,942.871,-823.730,412.598,-1000.000,0.000,0
1634634570.342,-890.137,645.996,76.660,-176.270,0.000,0
1634634570.346,13.672,-701.172,-583.496,987.793,0.000,0
1634634570.350,-834.473,-1000.000,-1000.000,-918.457,0.000,0
1634634570.354,737.793,16.602,-285.645,229.004,0.000,0
1634634570.352,995.605,-906.738,375.488,-1000.000,0.000,0
1634634570.355,-921.875,883.301,141.113,-303.223,0.000,0
1634634570.359,184.082,-370.605,-434.082,969.238,0.000,0
1634634570.363,-1000.000,-1000.000,-1000.000,-914.551,0.000,0
1634634570.367,386.230,-156.738,-328.125,227.051,0.000,0
1634634570.371,-946.289,-991.699,410.645,-1000.000,0.000,0
1634634570.375,-949.219,-960.449,216.797,-488.770,0.000,0
1634634570.379,225.586,-105.469,-343.750,880.859,0.000,0
1634634570.383,-1000.000,-1000.000,-1000.000,-881.836,0.000,0
1634634570.387,104.004,-171.875,-392.578,203.613,0.000,0
1634634570.391,-939.941,991.699,340.820,-1000.000,0.000,0
1634634570.395,-950.195,-923.828,261.230,-692.383,0.000,0
1634634570.394,261.719,86.426,-214.844,680.664,0.000,0
1634634570.398,-1000.000,-1000.000,-1000.000,-833.984,0.000,0
1634634570.402,-97.168,-184.570,-631.348,363.281,0.000,0
1634634570.406,-979.004,992.676,157.715,-1000.000,0.000,0
1634634570.410,-935.059,-922.363,364.258,-960.938,0.000,0
1634634570.414,426.270,231.445,-117.188,361.328,0.000,0
1634634570.418,-1000.000,-1000.000,-1000.000,-805.664,0.000,0
1634634570.422,-222.168,-362.793,-714.355,507.812,0.000,0
1634634570.426,-993.652,943.359,130.371,-866.211,0.000,0
1634634570.430,-943.359,-905.273,476.562,-1000.000,0.000,0
1634634570.433,599.609,222.168,-80.078,125.977,0.000,0
1634634570.437,-1000.000,-1000.000,-1000.000,-856.934,0.000,0
1634634570.437,-260.742,-536.133,-766.602,757.324,0.000,0
1634634570.441,-958.496,846.191,50.781,-563.477,0.000,0
1634634570.445,980.957,-869.629,432.129,-1000.000,0.000,0
1634634570.449,870.117,246.582,-31.738,-14.648,0.000,0
1634634570.453,-709.961,-1000.000,-940.918,-939.453,0.000,0
1634634570.457,-420.898,-771.973,-861.816,966.797,0.000,0
1634634570.461,-956.543,592.773,-67.383,-231.445,0.000,0
1634634570.464,924.316,-822.754,401.367,-1000.000,0.000,0
1634634570.468,-922.852,397.949,149.902,-173.828,0.000,0
1634634570.472,-341.309,-965.332,-641.602,-999.512,0.000,0
1634634570.476,-645.996,-1000.000,-986.328,-945.801,0.000,0
1634634570.480,964.355,280.762,-167.969,-51.758,0.000,0
1634634570.480,942.383,-812.500,419.434,-1000.000,0.000,0
1634634570.484,-901.367,571.289,79.590,-174.805,0.000,0
1634634570.488,-89.355,-791.504,-634.766,989.258,0.000,0
1634634570.492,-854.492,-1000.000,-1000.000,-912.598,0.000,0
1634634570.496,750.488,67.871,-282.715,103.027,0.000,0
1634634570.500,988.281,-879.395,335.449,-1000.000,0.000,0
1634634570.503,-919.922,814.453,133.301,-101.074,0.000,0
1634634570.507,184.082,-474.609,-481.445,984.375,0.000,0
1634634570.511,-1000.000,-1000.000,-1000.000,-924.805,0.000,0
1634634570.515,386.230,-95.703,-292.969,235.352,0.000,0
1634634570.519,-946.777,-968.750,401.367,-1000.000,0.000,0
1634634570.523,-947.266,-988.281,188.477,-399.414,0.000,0
1634634570.523,222.168,-156.738,-353.516,927.246,0.000,0
1634634570.527,-1000.000,-1000.000,-1000.000,-899.902,0.000,0
1634634570.531,118.164,-171.875,-427.246,219.238,0.000,0
1634634570.535,-918.945,994.629,341.309,-1000.000,0.000,2
1634634570.539,994.629,-931.641,253.418,-575.684,0.000,0
1634634570.543,144.531,32.715,-280.273,816.406,0.000,0
1634634570.546,-1000.000,-1000.000,-1000.000,-858.887,0.000,0
1634634570.550,-45.898,-179.199,-509.277,283.691,0.000,0
1634634570.554,-974.609,990.234,271.973,-1000.000,0.000,0
1634634570.558,-940.430,-919.922,316.895,-848.145,0.000,0
1634634570.562,429.688,210.449,-164.062,503.418,0.000,0
1634634570.566,-1000.000,-1000.000,-1000.000,-811.523,0.000,0
1634634570.566,-222.168,-291.992,-684.570,436.523,0.000,0
1634634570.570,-994.141,970.703,132.812,-918.945,0.000,0
1634634570.574,-942.871,-915.039,430.664,-1000.000,0.000,0
1634634570.578,595.215,227.539,-71.289,172.363,0.000,0
1634634570.582,-1000.000,-1000.000,-1000.000,-823.730,0.000,0
1634634570.586,-259.766,-479.980,-746.582,652.832,0.000,0
1634634570.590,-961.914,885.254,95.215,-695.312,0.000,0
1634634570.593,995.117,-883.301,479.492,-1000.000,0.000,0
1634634570.597,832.031,209.473,-39.551,6.348,0.000,0
1634634570.601,-749.512,-1000.000,-998.047,-912.598,0.000,0
1634634570.605,-312.988,-683.594,-809.082,896.973,0.000,0
1634634570.609,-930.664,693.848,-0.488,-353.027,0.000,0
1634634702.016,235.840,55.176,-505.859,54.199,0.000,0
1634634702.020,-1000.000,-1000.000,-429.199,-795.410,0.000,0
1634634702.024,-102.539,-180.664,768.066,515.625,0.000,0
1634634702.028,-971.191,990.234,387.695,-842.285,0.000,0
1634634702.032,-933.105,-916.016,-153.809,-1000.000,0.000,0
1634634702.035,230.469,225.586,-576.172,-118.164,0.000,0
1634634702.039,-1000.000,-1000.000,-490.234,-891.602,0.000,0
1634634702.043,-194.336,-243.164,672.363,771.484,0.000,0
1634634702.047,992.188,989.746,380.859,-566.406,0.000,0
1634634702.051,-919.434,-921.875,-271.484,-1000.000,0.000,0
1634634702.055,418.457,230.469,-661.133,-195.312,0.000,0
1634634702.058,-1000.000,-1000.000,-661.133,-956.543,0.000,0
1634634702.063,-222.168,-416.992,509.766,923.828,0.000,0
1634634702.067,-994.141,913.086,406.250,-367.676,0.000,0
1634634702.071,-943.848,-894.531,-374.512,-1000.000,0.000,0
1634634702.075,600.098,273.438,-699.707,-173.340,0.000,0
1634634702.079,-1000.000,-1000.000,-860.840,-1000.000,0.000,0
1634634702.083,-270.508,-592.285,24.414,-961.914,0.000,0
1634634702.087,-961.914,801.270,360.352,-73.242,0.000,0
1634634702.091,977.539,-863.770,-429.199,-1000.000,0.000,0
1634634702.094,873.535,422.852,-840.332,-387.207,0.000,0
1634634702.098,-705.078,-1000.000,-901.855,914.062,0.000,0
1634634702.102,-526.367,-883.789,-336.426,-906.738,0.000,0
1634634702.106,981.445,498.047,208.496,25.391,0.000,0
1634634702.115,976.562,-821.289,-464.844,-1000.000,0.000,0
1634634702.119,969.238,499.023,-980.957,-778.320,0.000,0
1634634702.123,-503.906,-878.418,-910.645,550.293,0.000,0
1634634702.127,-746.094,-1000.000,-659.180,-804.688,0.000,0
1634634702.131,876.953,175.781,-43.945,147.949,0.000,0
1634634702.135,974.121,-843.750,-419.922,-1000.000,0.000,0
1634634702.139,-939.941,720.703,-1000.000,-1000.000,0.000,0
1634634702.143,-156.250,-608.398,-925.293,151.855,0.000,0
1634634702.147,-992.676,-1000.000,-880.371,-763.672,0.000,0
1634634702.151,591.309,12.695,-255.859,129.883,0.000,0
1634634702.155,-980.469,-922.852,-367.676,-1000.000,0.000,0
1634634702.159,-945.801,931.152,-1000.000,-1000.000,0.000,0
1634634702.171,120.117,-288.086,-960.938,-154.785,0.000,0
1634634702.175,-1000.000,-1000.000,-1000.000,-803.223,0.000,0
1634634702.179,175.293,-182.129,-542.969,155.762,0.000,0
1634634702.183,-939.453,-982.910,-532.715,-1000.000,0.000,0
1634634702.188,-955.078,-981.445,-1000.000,-1000.000,0.000,0
1634634702.192,210.938,-181.152,-986.328,-256.348,0.000,0
1634634702.196,-1000.000,-1000.000,-995.117,-830.078,0.000,0
1634634702.200,-98.145,-173.340,-1000.000,170.410,0.000,0
1634634702.204,-973.145,998.535,-1000.000,-1000.000,0.000,0
1634634702.208,-932.617,-938.477,-1000.000,-1000.000,0.000,0
1634634702.213,230.469,-12.207,-997.070,-266.113,0.000,0
1634634702.217,-1000.000,-1000.000,-1000.000,-831.543,0.000,0
1634634702.232,-203.613,-174.805,-974.609,366.211,0.000,0
1634634702.236,-998.047,988.281,-957.031,-960.449,0.000,0
1634634702.240,-918.457,-923.828,-1000.000,-1000.000,0.000,0
1634634702.245,222.656,205.078,-961.914,-218.750,0.000,0
1634634702.249,-1000.000,-1000.000,-1000.000,-956.055,0.000,0
1634634702.253,-203.613,-385.254,-745.605,925.293,0.000,0
1634634702.258,-997.559,937.500,-466.797,-369.141,0.000,0
1634634702.262,-923.828,-906.250,-968.750,-1000.000,0.000,0
1634634702.267,229.004,141.113,-1000.000,-151.855,0.000,0
1634634702.271,-1000.000,-1000.000,-740.234,-994.141,0.000,0
1634634702.275,-303.223,-687.500,-123.535,-967.773,0.000,0
1634634702.280,968.262,689.453,250.977,-69.824,0.000,0
1634634702.296,-911.621,-834.961,-209.473,-1000.000,0.000,0
1634634702.301,225.098,181.152,-919.434,-482.422,0.000,0
1634634702.305,-1000.000,-1000.000,-902.832,903.320,0.000,0
1634634702.310,-384.766,-812.012,-438.477,-942.383,0.000,0
1634634702.314,915.039,539.551,-69.336,-205.566,0.000,0
1634634702.319,-919.434,-807.129,-634.766,-1000.000,0.000,0
1634634702.323,595.703,243.164,-1000.000,-679.688,0.000,0
1634634702.328,-998.047,-1000.000,-949.707,651.367,0.000,0
1634634702.332,-638.184,-985.352,-785.156,-834.473,0.000,0
1634634702.337,860.840,279.297,-136.719,87.402,0.000,0
1634634702.341,-956.543,-785.156,-484.863,-1000.000,0.000,0
1634634702.346,825.195,416.016,-1000.000,-705.078,0.000,0
1634634702.363,-612.793,-918.457,-926.758,663.574,0.000,0
1634634702.368,-962.891,-1000.000,-886.719,-830.566,0.000,0
1634634702.373,582.520,73.242,-249.512,197.754,0.000,0
1634634702.377,-963.867,-839.355,-330.078,-1000.000,0.000,0
1634634702.382,-990.723,691.406,-1000.000,-544.434,0.000,0
1634634702.387,-220.215,-645.020,-929.688,826.660,0.000,0
1634634702.391,-1000.000,-1000.000,-963.867,-871.582,0.000,0
1634634702.396,389.160,-79.590,-150.391,456.543,0.000,0
1634634702.401,-960.449,-944.336,-93.750,-1000.000,0.000,0
1634634702.405,-952.637,950.684,-1000.000,-521.484,0.000,0
1634634702.410,94.238,-279.297,-947.754,887.207,0.000,0
1634634702.415,-1000.000,-1000.000,-1000.000,-905.273,0.000,0
1634634702.433,120.605,-171.875,-91.797,568.359,0.000,0
1634634702.437,-948.242,997.559,-12.695,-929.688,0.000,0
1634634702.442,-947.266,-943.359,-1000.000,-902.344,0.000,0
1634634702.447,235.840,-40.039,-969.727,546.387,0.000,0
1634634702.452,-1000.000,-1000.000,-1000.000,-904.785,0.000,0
1634634702.457,-102.539,-179.688,-54.688,836.426,0.000,0
1634634702.461,-971.191,998.047,6.836,-683.105,0.000,0
1634634702.466,-933.105,-931.152,-999.512,-698.730,0.000,0
1634634702.471,230.469,71.777,-1000.000,897.949,0.000,0
1634634702.476,-1000.000,-1000.000,-678.223,979.004,0.000,0
1634634702.481,-203.613,-261.719,442.383,-965.332,0.000,0
1634634702.485,-997.559,964.355,460.938,-256.836,0.000,0
1634634702.496,-918.457,-912.109,-33.203,-994.629,0.000,0
1634634702.501,222.656,227.539,-624.023,580.566,0.000,0
1634634702.505,-1000.000,-1000.000,-394.043,-948.730,0.000,0
1634634702.510,-190.918,-437.012,832.031,990.234,0.000,1
1634634702.515,990.234,907.715,712.891,-131.836,0.000,0
1634634702.520,-927.734,-892.578,672.363,-1000.000,0.000,0
1634634702.525,512.207,215.820,-103.027,8.301,0.000,0
1634634702.530,-1000.000,-1000.000,-325.684,-953.613,0.000,0
1634634702.535,-254.395,-569.336,898.926,-969.727,0.000,0
1634634702.540,-969.727,811.523,877.441,-31.250,0.000,0
1634634702.544,980.469,-866.211,709.961,-1000.000,0.000,0
1634634702.549,873.047,436.523,578.125,-172.363,0.000,0
1634634702.553,-706.055,-1000.000,497.559,993.164,0.000,0
1634634702.558,-518.555,-849.121,861.328,-920.898,0.000,0
1634634702.563,-997.070,557.129,922.852,117.676,0.000,0
1634634702.568,943.359,-869.629,845.215,-1000.000,0.000,0
1634634702.573,-959.961,698.242,832.031,-188.477,0.000,0
1634634702.578,-314.453,-719.727,708.496,994.629,0.000,0
1634634702.582,-717.773,-1000.000,851.074,-928.223,0.000,0
1634634702.587,912.598,362.793,931.152,234.863,0.000,0
1634634702.592,947.266,-945.801,836.426,-1000.000,0.000,0
1634634702.597,-897.461,-995.117,854.004,-485.840,0.000,0
1634634702.602,144.531,-135.742,664.551,882.324,0.000,0
1634634702.607,-911.133,-1000.000,772.461,-882.812,0.000,0
1634634702.606,587.891,132.812,950.195,211.914,0.000,0
1634634702.610,-972.656,-943.848,837.891,-1000.000,0.000,0
1634634702.615,-940.918,-965.820,868.652,-575.684,0.000,0
1634634702.620,216.309,41.016,653.809,816.406,0.000,0
1634634702.625,-1000.000,-1000.000,745.117,-861.328,0.000,0
1634634702.630,204.102,-113.770,980.957,303.711,0.000,0
1634634702.635,-932.617,-983.398,893.066,-1000.000,0.000,0
1634634702.639,-952.148,-932.617,897.461,-587.402,0.000,0
1634634702.644,231.445,112.793,864.258,820.312,0.000,0
1634634702.649,-1000.000,-1000.000,909.668,-852.051,0.000,0
1634634702.654,6.836,-187.500,966.309,331.055,0.000,0
1634634702.659,-958.984,994.141,937.500,-925.293,0.000,0
1634634702.653,-943.359,-915.039,930.176,-1000.000,0.000,0
1634634702.658,369.629,222.656,905.762,-141.602,0.000,0
1634634702.663,-1000.000,-1000.000,910.156,-862.305,0.000,0
1634634702.668,-195.312,-210.449,950.684,680.176,0.000,0
1634634702.672,-974.121,-978.516,926.270,-716.797,0.000,0
1634634702.677,-990.723,-981.445,900.391,-1000.000,0.000,0
1634634702.682,425.293,143.066,880.859,-88.379,0.000,0
1634634702.687,-1000.000,-1000.000,888.184,-963.867,0.000,0
1634634702.691,-240.723,-346.191,936.035,921.387,0.000,0
1634634702.696,-988.281,943.359,916.016,-363.770,0.000,0
1634634702.701,-945.801,-906.250,898.926,-1000.000,0.000,0
1634634702.706,600.586,281.250,846.680,-172.852,0.000,0
1634634702.697,-1000.000,-1000.000,755.371,-1000.000,0.000,0
1634634702.702,-261.230,-529.297,905.273,-962.402,0.000,0
1634634702.706,-958.984,847.656,915.039,-72.754,0.000,0
1634634702.711,977.051,-879.395,834.473,-1000.000,0.000,0
1634634702.716,873.047,442.383,666.504,-406.738,0.000,0
1634634702.720,-707.520,-1000.000,521.484,907.715,0.000,0
1634634702.725,-492.188,-804.199,855.469,-900.391,0.000,0
1634634702.730,982.910,619.629,899.902,-31.738,0.000,0
1634634702.734,-995.117,-822.754,651.855,-1000.000,0.000,0
1634634702.739,861.328,308.105,577.148,-1000.000,0.000,0
1634634702.744,-683.594,-988.770,618.652,186.035,0.000,0
1634634702.748,-700.684,-1000.000,908.203,-781.250,0.000,0
1634634702.737,903.320,189.941,968.262,75.684,0.000,0
1634634702.742,963.379,-822.754,904.785,-1000.000,0.000,0
1634634702.746,-930.664,641.602,895.508,-868.652,0.000,0
1634634702.751,-216.309,-819.336,842.285,557.129,0.000,0
1634634702.755,-888.672,-990.234,917.480,-981.445,0.000,0
1634634702.760,771.973,426.758,947.266,-213.867,0.000,0
1634634702.765,-998.535,-916.504,908.691,-1000.000,0.000,0
1634634702.769,-943.848,854.492,872.559,-923.828,0.000,0
1634634702.774,69.824,-389.160,710.449,338.379,0.000,0
1634634702.778,-1000.000,-1000.000,843.262,-776.855,0.000,0
1634634702.783,292.969,-79.102,956.055,229.004,0.000,0
1634634702.787,-953.125,-988.281,785.645,-977.539,0.000,0
1634634702.774,-928.223,-939.453,788.574,-1000.000,0.000,0
1634634702.779,184.570,-59.082,135.254,-62.500,0.000,0
1634634702.783,-1000.000,-1000.000,302.734,-901.367,0.000,0
1634634702.788,283.203,5.371,-965.820,163.574,0.000,0
1634634702.792,-956.543,972.656,463.867,-930.664,0.000,0
1634634702.797,-952.148,-919.922,249.512,-1000.000,0.000,0
1634634702.801,241.699,151.855,-422.363,-257.812,0.000,0
1634634702.806,-1000.000,-1000.000,-308.105,-854.980,0.000,0
1634634702.810,-102.539,-192.383,945.312,547.363,0.000,0
1634634702.815,-971.191,997.070,427.734,-855.957,0.000,0
1634634702.819,-933.105,-920.898,-203.613,-1000.000,0.000,0
1634634702.823,229.980,229.004,-691.406,-217.285,0.000,0
1634634702.810,-1000.000,-1000.000,-324.219,-925.293,0.000,0
1634634702.815,-194.336,-295.898,916.992,812.012,0.000,0
1634634702.819,992.188,971.680,516.113,-540.527,0.000,0
1634634702.823,-919.922,-914.551,11.230,-1000.000,0.000,0
1634634702.828,418.457,227.051,-509.277,-180.664,0.000,0
1634634702.832,-1000.000,-1000.000,-320.312,-990.234,0.000,0
1634634702.836,-222.168,-460.449,901.367,-991.699,0.000,0
1634634702.841,-993.652,889.648,654.785,-172.852,0.000,0
1634634702.845,-948.730,-885.742,106.934,-1000.000,0.000,0
1634634702.850,605.957,277.344,-610.352,-458.984,0.000,0
1634634702.854,-1000.000,-1000.000,-414.551,870.117,0.000,0
1634634702.858,-360.352,-655.273,851.562,-895.508,0.000,0
1634634702.847,-992.676,736.328,764.160,-2.441,0.000,0
1634634702.851,989.258,-850.586,4.883,-1000.000,0.000,0
1634634702.855,868.164,411.133,-788.086,-696.289,0.000,0
1634634702.859,-696.777,-998.535,-572.266,661.133,0.000,0
1634634702.864,-606.445,-916.992,653.320,-830.078,0.000,0
1634634702.868,939.453,444.824,873.047,107.422,0.000,0
1634634702.872,992.676,-815.918,127.441,-1000.000,0.000,0
1634634702.877,955.566,506.348,-735.352,-899.414,0.000,0
1634634702.881,-475.586,-875.488,-624.023,404.785,0.000,0
1634634702.885,-859.375,-1000.000,553.711,-789.551,0.000,0
1634634702.890,753.418,179.688,978.516,153.320,0.000,0
1634634702.894,-999.512,-849.609,139.648,-1000.000,0.000,0
1634634702.883,-957.031,742.188,-826.172,-1000.000,0.000,0
1634634702.888,-124.512,-580.566,-724.121,224.121,0.000,0
1634634702.892,-1000.000,-1000.000,452.148,-771.484,0.000,0
1634634702.896,429.199,18.066,-980.469,142.578,0.000,0
1634634702.900,-961.914,-933.594,47.363,-1000.000,0.000,0
1634634702.905,-947.754,963.379,-913.086,-1000.000,0.000,0
1634634702.909,119.141,-228.027,-863.770,40.039,0.000,0
1634634702.913,-1000.000,-1000.000,216.797,-772.461,0.000,0
1634634702.917,151.367,-172.363,-951.172,334.473,0.000,0
1634634702.922,-945.312,998.047,-5.371,-947.266,0.000,0
1634634702.926,-944.336,-941.406,-951.660,-1000.000,0.000,0
1634634702.930,228.027,-30.273,-995.605,-150.879,0.000,0
1634634702.921,-1000.000,-1000.000,-198.730,-828.125,0.000,0
1634634702.925,-4.883,-175.293,975.586,532.715,0.000,0
1634634702.929,-952.148,989.746,34.668,-848.145,0.000,0
1634634702.933,-944.824,-917.480,-978.027,-1000.000,0.000,0
1634634702.938,237.305,155.762,-1000.000,-222.656,0.000,0
1634634702.942,-1000.000,-1000.000,-342.773,-909.180,0.000,0
1634634702.946,-198.730,-193.848,942.383,753.418,0.000,0
1634634702.950,996.094,998.047,111.816,-617.188,0.000,0
1634634702.954,-916.504,-924.316,-918.457,-1000.000,0.000,0
1634634702.958,322.266,231.934,-1000.000,-192.871,0.000,0
1634634702.963,-1000.000,-1000.000,-376.465,-965.820,0.000,0
1634634702.967,-207.031,-374.023,933.594,943.359,0.000,0
1634634702.959,998.047,938.477,214.355,-314.941,0.000,0
1634634702.963,-929.688,-902.832,-810.059,-1000.000,0.000,0
1634634702.967,511.719,221.191,-971.680,-268.066,0.000,0
1634634702.971,-1000.000,-1000.000,-431.641,958.008,0.000,0
1634634702.975,-240.723,-535.156,903.809,-933.594,0.000,0
1634634702.979,-977.051,840.332,414.551,0.488,0.000,0
1634634702.983,-987.305,-869.141,-682.617,-1000.000,0.000,0
1634634702.988,749.023,322.754,-1000.000,-468.750,0.000,0
1634634702.992,-870.117,-1000.000,-618.652,870.605,0.000,0
1634634702.996,-486.328,-791.016,690.918,-883.789,0.000,0
1634634703.000,972.168,588.867,559.570,101.074,0.000,0
1634634703.004,-994.141,-825.684,-571.777,-1000.000,0.000,0
1634634702.998,860.352,427.246,-1000.000,-705.078,0.000,0
1634634703.003,-683.105,-948.242,-696.289,663.574,0.000,0
1634634703.007,-699.219,-1000.000,563.965,-826.172,0.000,0
1634634703.011,899.902,278.320,672.852,164.551,0.000,0
1634634703.015,974.609,-830.078,-427.734,-1000.000,0.000,0
1634634703.019,-957.520,646.484,-1000.000,-957.031,0.000,0
1634634703.023,-228.027,-708.008,-790.039,334.473,0.000,0
1634634703.027,-997.070,-1000.000,374.512,-776.855,0.000,0
1634634703.031,592.773,73.242,743.652,132.324,0.000,0
1634634703.035,-978.516,-904.785,-340.332,-1000.000,0.000,0
1634634703.039,-951.660,895.996,-1000.000,-1000.000,0.000,0
1634634703.043,43.945,-347.168,-940.918,-53.711,0.000,0
1634634703.039,-1000.000,-1000.000,29.785,-783.691,0.000,0
1634634703.043,227.539,-101.074,753.906,173.340,0.000,0
1634634703.047,-945.312,-975.586,-304.199,-1000.000,0.000,0
1634634703.051,-948.242,-969.727,-1000.000,-1000.000,0.000,0
1634634703.055,231.445,-106.445,-1000.000,-163.574,0.000,0
1634634703.059,-1000.000,-1000.000,-249.023,-805.664,0.000,0
1634634703.063,0.000,-172.852,871.094,351.562,0.000,0
1634634703.067,-951.172,993.164,-140.625,-952.637,0.000,0
1634634703.071,-945.801,-926.270,-1000.000,-1000.000,0.000,0
1634634703.075,237.793,66.895,-1000.000,-249.023,0.000,0
1634634703.079,-1000.000,-1000.000,-359.375,-866.211,0.000,0
1634634703.083,-203.613,-182.129,877.930,597.168,0.000,0
1634634703.079,-998.047,991.699,-110.840,-801.758,0.000,0
1634634703.083,-918.457,-919.434,-1000.000,-1000.000,0.000,0
1634634703.087,222.656,229.004,-1000.000,-208.984,0.000,0
1634634703.091,-1000.000,-1000.000,-379.883,-940.918,0.000,0
1634634703.095,-194.336,-303.223,891.113,859.863,0.000,0
1634634703.099,991.699,969.238,-75.195,-455.566,0.000,0
1634634703.103,-919.922,-914.551,-1000.000,-1000.000,0.000,0
1634634703.107,418.457,227.051,-1000.000,-252.441,0.000,0
1634634703.111,-1000.000,-1000.000,-457.520,976.562,0.000,0
1634634703.115,-222.168,-480.469,821.289,-960.449,0.000,0
1634634703.119,-993.652,878.418,-6.348,-114.258,0.000,0
1634634703.123,-948.730,-881.348,-1000.000,-1000.000,0.000,0
1634634703.120,605.469,278.809,-1000.000,-435.059,0.000,0
1634634703.124,-1000.000,-1000.000,-720.703,889.160,0.000,0
1634634703.128,-360.840,-708.008,555.664,-901.855,0.000,0
1634634703.132,-992.676,679.688,164.062,9.277,0.000,0
1634634703.136,989.258,-839.355,-1000.000,-1000.000,0.000,0
1634634703.140,868.164,420.898,-1000.000,-567.383,0.000,0
1634634703.144,-696.777,-974.121,-804.688,792.480,0.000,0
1634634703.148,-610.352,-970.215,376.953,-853.516,0.000,0
1634634703.152,953.613,375.000,155.762,183.105,0.000,0
1634634703.156,958.496,-829.590,-990.234,-1000.000,0.000,0
1634634703.160,-947.266,611.328,-1000.000,-845.215,0.000,0
1634634703.164,-292.969,-757.812,-856.445,507.324,0.000,0
1634634703.161,-873.047,-1000.000,199.707,-800.293,0.000,0
1634634703.165,756.836,136.719,76.660,147.461,0.000,0
1634634703.169,995.117,-885.742,-1000.000,-1000.000,0.000,0
1634634703.173,-938.477,853.027,-1000.000,-1000.000,0.000,0
1634634703.176,-20.020,-417.969,-985.840,151.855,0.000,0
1634634703.180,-1000.000,-1000.000,-72.266,-764.648,0.000,0
1634634703.184,413.574,-25.879,137.695,137.207,0.000,0
1634634703.188,-961.426,-960.449,-930.176,-1000.000,0.000,0
1634634703.192,-944.336,-981.445,-997.070,-1000.000,0.000,0
1634634703.196,225.586,-107.422,-1000.000,-62.012,0.000,0
1634634703.200,-1000.000,-1000.000,-214.844,-785.156,0.000,0
1634634703.204,102.539,-172.852,560.547,338.867,0.000,0
1634634703.202,-938.477,993.652,-552.246,-945.312,0.000,0
1634634703.206,-950.684,-927.246,-1000.000,-1000.000,0.000,0
1634634703.210,235.840,59.570,-1000.000,-252.441,0.000,0
1634634703.214,-1000.000,-1000.000,-349.609,-854.980,0.000,0
1634634703.218,-102.539,-182.129,789.062,547.363,0.000,0
1634634703.222,-971.191,991.699,-236.328,-855.957,0.000,0
1634634703.226,-933.105,-915.039,-1000.000,-1000.000,0.000,0
1634634703.229,230.469,211.914,-1000.000,-217.285,0.000,0
1634634703.233,-1000.000,-1000.000,-423.828,-925.293,0.000,0
1634634703.237,-197.266,-206.543,794.434,812.012,0.000,0
1634634703.241,994.629,-999.512,-138.672,-540.527,0.000,0
1634634703.245,-917.480,-926.270,-1000.000,-1000.000,0.000,0
1634634703.243,354.004,232.910,-1000.000,-180.664,0.000,0
1634634703.247,-1000.000,-1000.000,-550.293,-990.234,0.000,0
1634634703.251,-212.891,-398.438,727.539,-988.281,0.000,0
1634634703.255,-999.023,926.270,-81.055,-175.293,0.000,0
1634634703.259,-936.035,-898.926,-1000.000,-1000.000,0.000,0
1634634703.263,517.578,237.793,-1000.000,-366.211,0.000,0
1634634703.267,-1000.000,-1000.000,-630.859,918.457,0.000,0
1634634703.271,-340.332,-575.195,661.621,-914.062,0.000,0
1634634703.275,988.770,814.941,39.551,14.648,0.000,0
1634634703.279,-972.656,-862.305,-1000.000,-1000.000,0.000,0
1634634703.283,741.699,365.723,-1000.000,-553.711,0.000,0
1634634703.286,-864.258,-1000.000,-811.035,807.617,0.000,0
1634634703.285,-530.762,-835.938,404.297,-856.445,0.000,0
1634634703.289,963.379,542.480,152.344,181.152,0.000,0
1634634703.293,979.004,-832.031,-1000.000,-1000.000,0.000,0
1634634703.296,968.750,531.250,-1000.000,-835.938,0.000,0
1634634703.300,-508.789,-872.559,-913.086,518.555,0.000,0
1634634703.304,-720.703,-1000.000,-175.781,-805.664,0.000,0
1634634703.308,904.785,268.066,-73.730,160.645,0.000,0
1634634703.312,968.750,-867.188,-976.074,-1000.000,0.000,0
1634634703.316,-938.477,783.691,-1000.000,-965.820,0.000,0
1634634703.320,-155.762,-527.344,-961.426,318.359,0.000,0
1634634703.324,-992.676,-1000.000,-982.910,-775.391,0.000,0
1634634703.328,591.797,70.801,-949.219,132.812,0.000,0
1634634703.328,-981.934,-921.875,-993.652,-1000.000,0.000,0
1634634703.332,-942.871,953.125,-1000.000,-1000.000,0.000,0
1634634703.335,114.258,-250.977,-997.559,-62.500,0.000,0
1634634703.339,-1000.000,-1000.000,-1000.000,-788.086,0.000,0
1634634703.343,218.750,-72.266,-1000.000,355.469,0.000,0
1634634703.347,-939.941,-987.305,-1000.000,-970.703,0.000,0
1634634703.351,-949.707,-941.895,-1000.000,-1000.000,0.000,0
1634634703.355,231.445,55.176,-1000.000,9.766,0.000,0
1634634703.359,-1000.000,-1000.000,-1000.000,-837.402,0.000,0
1634634703.363,0.000,-179.688,-1000.000,669.922,0.000,0
1634634703.367,-951.172,989.746,-1000.000,-726.074,0.000,1
1634634703.371,-945.801,-913.574,-1000.000,-1000.000,0.000,0
1634634703.371,237.793,223.145,-1000.000,111.816,0.000,0
1634634703.375,-1000.000,-1000.000,-1000.000,-864.258,0.000,0
1634634703.378,-198.730,-203.613,-1000.000,780.762,0.000,0
1634634703.382,996.094,-997.070,-1000.000,-530.273,0.000,0
1634634703.386,-916.992,-922.852,-1000.000,-1000.000,0.000,0
1634634703.390,321.777,229.492,-1000.000,-41.016,0.000,0
1634634703.394,-1000.000,-1000.000,-1000.000,-956.055,0.000,0
1634634703.398,-208.496,-303.223,-1000.000,-998.047,0.000,0
1634634703.402,998.535,969.238,-1000.000,-174.805,0.000,0
1634634703.406,-926.758,-914.551,-1000.000,-1000.000,0.000,0
1634634703.410,471.191,227.051,-1000.000,-177.246,0.000,0
1634634703.413,-1000.000,-1000.000,-1000.000,-993.164,0.000,0
1634634703.414,-232.422,-489.746,-1000.000,-961.914,0.000,0
1634634703.418,-989.746,875.488,-1000.000,-73.730,0.000,0
1634634703.422,-954.102,-879.883,-1000.000,-1000.000,0.000,0
1634634703.425,609.863,256.836,-1000.000,-367.676,0.000,0
1634634703.429,-1000.000,-1000.000,-1000.000,914.062,0.000,0
1634634703.433,-457.031,-717.285,-1000.000,-898.926,0.000,0
1634634703.437,965.820,664.062,-1000.000,117.676,0.000,0
1634634703.441,-994.629,-836.426,-1000.000,-1000.000,0.000,0
1634634703.445,859.863,419.922,-1000.000,-478.027,0.000,0
1634634703.449,-688.965,-978.027,-1000.000,870.605,0.000,0
1634634703.453,-651.367,-959.473,-1000.000,-878.906,0.000,0
1634634703.456,927.734,392.090,-1000.000,202.148,0.000,0
1634634703.457,966.797,-834.961,-1000.000,-1000.000,0.000,0
1634634703.461,-950.195,627.441,-1000.000,-721.191,0.000,0
1634634703.465,-292.480,-740.234,-1000.000,669.434,0.000,0
1634634703.469,-874.512,-1000.000,-1000.000,-823.242,0.000,0
1634634703.473,763.672,152.832,-1000.000,145.996,0.000,0
1634634703.476,983.887,-920.410,-1000.000,-1000.000,0.000,0
1634634703.480,-925.293,955.566,-994.629,-1000.000,0.000,0
1634634703.484,82.520,-232.422,-999.512,93.262,0.000,0
1634634703.488,-1000.000,-1000.000,-1000.000,-773.438,0.000,0
1634634703.492,400.879,-54.199,-765.137,156.738,0.000,0
1634634703.496,-954.102,-958.496,-819.824,-1000.000,0.000,0
1634634703.500,-946.289,-979.980,-1000.000,-1000.000,0.000,0
1634634703.500,225.098,-114.746,-957.031,142.578,0.000,0
1634634703.504,-1000.000,-1000.000,-1000.000,-765.137,0.000,0
1634634703.508,102.539,-176.270,-410.645,310.059,0.000,0
1634634703.512,-938.477,-1000.000,-330.566,-961.914,0.000,0
1634634703.516,-950.195,-936.523,-1000.000,-1000.000,0.000,0
1634634703.520,236.328,-1.953,-939.453,-50.293,0.000,0
1634634703.524,-1000.000,-1000.000,-1000.000,-796.875,0.000,0
1634634703.527,-102.051,-174.316,-301.758,432.129,0.000,0
1634634703.531,-970.703,986.328,-122.559,-896.973,0.000,0
1634634703.535,-933.105,-914.551,-1000.000,-1000.000,0.000,0
1634634703.539,230.469,225.098,-958.496,-235.352,0.000,0
1634634703.543,-1000.000,-1000.000,-1000.000,-889.160,0.000,0
1634634703.544,-194.336,-231.934,-728.516,686.523,0.000,0
1634634703.548,990.723,991.699,-541.504,-704.102,0.000,0
1634634703.552,-912.598,-916.992,-1000.000,-1000.000,0.000,0
1634634703.555,399.902,213.379,-985.840,-197.754,0.000,0
1634634703.559,-1000.000,-1000.000,-1000.000,-958.496,0.000,0
1634634703.563,-134.277,-346.680,-848.633,923.828,0.000,0
1634634703.567,995.605,893.066,-711.914,-367.676,0.000,0
1634634703.571,-948.242,-890.625,-1000.000,-1000.000,0.000,0
1634634703.575,608.398,269.043,-989.746,-172.852,0.000,0
1634634703.579,-1000.000,-1000.000,-1000.000,-1000.000,0.000,0
1634634703.582,-360.352,-638.672,-891.602,-961.426,0.000,0
1634634703.586,-992.676,750.000,-758.789,-73.730,0.000,0
1634634703.587,989.746,-853.516,-1000.000,-1000.000,0.000,0
1634634703.591,868.164,420.410,-1000.000,-367.676,0.000,0
1634634703.595,-696.777,-993.652,-1000.000,913.574,0.000,0
1634634703.599,-610.352,-918.457,-958.984,-900.879,0.000,0
1634634703.603,953.613,448.730,-850.098,117.676,0.000,0
1634634703.607,958.496,-829.590,-984.863,-1000.000,0.000,0
1634634703.611,-947.266,574.219,-1000.000,-565.918,0.000,0
1634634703.614,-292.969,-802.734,-987.305,814.453,0.000,0
1634634703.618,-872.070,-1000.000,-1000.000,-858.398,0.000,0
1634634703.622,751.953,153.809,-526.855,183.594,0.000,0
1634634703.626,-997.070,-855.957,-540.527,-1000.000,0.000,0
1634634703.630,-950.684,757.812,-1000.000,-845.215,0.000,0
1634634703.631,-84.473,-557.617,-953.125,507.324,0.000,0
1634634703.635,-1000.000,-1000.000,-1000.000,-800.293,0.000,0
1634634703.639,417.480,-14.160,-191.895,147.461,0.000,0
1634634703.642,-961.914,-949.707,169.922,-1000.000,0.000,0
1634634703.646,-947.266,993.164,-751.953,-1000.000,0.000,0
1634634703.650,176.758,-175.293,-914.062,164.062,0.000,0
1634634703.654,-1000.000,-1000.000,-1000.000,-820.801,0.000,0
1634634703.658,109.863,-172.363,-155.762,155.273,0.000,0
1634634703.662,-941.895,997.070,556.152,-995.117,0.000,0
1634634703.665,-949.219,-936.523,241.211,-1000.000,0.000,0
1634634703.669,235.840,-3.906,-396.973,45.898,0.000,0
1634634703.673,-1000.000,-1000.000,-1000.000,-774.902,0.000,0
1634634703.674,-102.539,-173.828,71.777,334.473,0.000,0
1634634703.678,-971.191,986.328,654.785,-947.266,0.000,0
1634634703.682,-933.105,-912.598,376.953,-1000.000,0.000,0
1634634703.686,229.980,223.145,-269.531,-149.902,0.000,0
1634634703.690,-1000.000,-1000.000,-1000.000,-830.566,0.000,0
1634634703.694,-198.730,-203.613,-73.730,544.434,0.000,0
1634634703.697,995.605,-997.070,518.066,-835.449,0.000,0
1634634703.701,-916.504,-927.246,-344.238,-1000.000,0.000,0
1634634703.705,322.266,233.398,-673.828,-216.797,0.000,0
1634634703.709,-1000.000,-1000.000,-1000.000,-925.293,0.000,0
1634634703.713,-207.031,-398.926,-505.859,812.012,0.000,0
1634634703.717,998.047,926.758,225.586,-540.527,0.000,0
1634634703.719,-934.082,-899.414,-476.074,-1000.000,0.000,0
1634634703.723,516.602,231.445,-735.840,-180.664,0.000,0
1634634703.727,-1000.000,-1000.000,-1000.000,-990.234,0.000,0
1634634703.731,-323.730,-574.707,-625.977,-978.516,0.000,0
1634634703.734,994.629,814.453,421.875,-185.059,0.000,0
1634634703.738,-976.562,-861.816,332.520,-1000.000,0.000,0
1634634703.742,743.652,348.633,-328.613,-169.922,0.000,0
1634634703.746,-862.305,-1000.000,-916.992,994.141,0.000,0
1634634703.750,-559.082,-842.285,-145.508,-936.523,0.000,0
1634634703.754,948.730,530.273,742.676,23.926,0.000,0
1634634703.757,984.863,-820.801,766.113,-1000.000,0.000,0
1634634703.761,958.008,471.680,59.082,-256.836,0.000,0
1634634703.764,-478.027,-900.391,-720.703,960.449,0.000,0
1634634703.768,-849.609,-1000.000,105.957,-915.527,0.000,0
1634634703.771,754.395,194.336,808.105,228.516,0.000,0
1634634703.775,-990.723,-832.520,854.004,-1000.000,0.000,0
1634634703.779,-968.750,675.781,541.992,-581.055,0.000,0
1634634703.783,-248.047,-670.898,-438.477,822.266,0.000,0
1634634703.787,-999.023,-1000.000,-310.547,-854.004,0.000,0
1634634703.791,599.121,51.270,655.273,156.738,0.000,0
1634634703.794,-986.816,-928.223,692.871,-1000.000,0.000,0
1634634703.798,-942.383,955.566,-8.301,-1000.000,0.000,0
1634634703.802,114.258,-243.164,-809.570,151.855,0.000,0
1634634703.806,-1000.000,-1000.000,-1000.000,-763.672,0.000,0
1634634703.808,218.750,-118.164,-62.988,132.812,0.000,0
1634634703.812,-939.941,-989.258,223.145,-1000.000,0.000,0
1634634703.816,-949.707,-948.242,-861.816,-1000.000,0.000,0
1634634703.820,231.445,-21.484,-935.059,-125.000,0.000,0
1634634703.824,-1000.000,-1000.000,-1000.000,-797.363,0.000,0
1634634703.828,0.000,-174.805,-166.016,346.680,0.000,0
1634634703.831,-951.660,988.770,108.887,-950.195,0.000,0
1634634703.835,-945.801,-916.504,-1000.000,-1000.000,0.000,0
1634634703.839,237.793,172.363,-930.664,-252.441,0.000,0
1634634703.843,-1000.000,-1000.000,-1000.000,-854.980,0.000,0
1634634703.847,-200.684,-196.289,-235.840,547.363,0.000,0
1634634703.851,998.047,999.023,75.684,-855.957,0.000,0
1634634703.853,-917.480,-924.316,-988.281,-1000.000,0.000,0
1634634703.857,284.668,230.957,-921.875,-216.797,0.000,0
1634634703.861,-1000.000,-1000.000,-1000.000,-925.293,0.000,0
1634634703.865,-204.590,-353.027,-133.789,807.129,0.000,0
1634634703.868,997.070,947.754,473.145,-533.203,0.000,0
1634634703.872,-921.875,-906.738,4.395,-1000.000,0.000,0
1634634703.876,418.457,223.145,-552.734,-280.273,0.000,0
1634634703.880,-1000.000,-1000.000,-348.145,976.074,0.000,0
1634634703.884,-222.168,-531.738,879.883,-975.586,0.000,0
1634634703.888,-993.652,846.680,889.648,-181.152,0.000,0
1634634703.891,-953.125,-870.117,858.398,-1000.000,0.000,0
1634634703.895,609.863,270.020,659.668,-456.543,0.000,0
1634634703.899,-1000.000,-1000.000,540.039,866.699,0.000,0
1634634703.903,-457.031,-735.352,925.293,-891.113,0.000,0
1634634703.906,965.820,645.020,955.566,31.738,0.000,0
1634634703.910,-995.605,-833.984,905.273,-1000.000,0.000,0
1634634703.914,859.863,427.246,873.047,-696.777,0.000,0
1634634703.918,-683.105,-962.891,763.672,658.203,0.000,0
1634634703.922,-698.730,-993.652,915.039,-826.172,0.000,0
1634634703.925,897.461,339.355,965.332,170.410,0.000,0
1634634703.929,978.516,-820.312,911.621,-1000.000,0.000,0
1634634703.933,-965.820,585.938,884.277,-906.250,0.000,0
1634634703.937,-257.324,-778.809,790.527,412.598,0.000,0
1634634703.941,-998.535,-1000.000,913.086,-789.062,0.000,0
1634634703.943,592.773,101.562,971.191,145.020,0.000,0
1634634703.947,-979.004,-890.625,915.039,-1000.000,0.000,0
1634634703.951,-948.242,863.281,891.602,-1000.000,0.000,0
1634634703.955,-7.324,-427.734,820.312,132.812,0.000,0
1634634703.959,-1000.000,-1000.000,907.715,-820.312,0.000,0
1634634703.963,321.289,18.555,957.520,124.023,0.000,0
1634634703.966,-960.938,-989.258,906.738,-980.469,0.000,0
1634634703.970,-940.430,-959.961,893.555,-1000.000,0.000,0
1634634703.974,221.191,-42.969,553.223,-160.645,0.000,0
1634634703.978,-1000.000,-1000.000,704.590,-806.641,0.000,0
1634634703.982,112.305,-168.945,-975.098,341.797,0.000,0
1634634703.985,-949.707,982.910,692.383,-973.145,0.000,0
1634634703.988,-945.312,-912.109,650.879,-1000.000,0.000,0
1634634703.992,421.387,223.145,393.066,-985.352,0.000,0
1634634703.996,-1000.000,-1000.000,415.527,488.770,0.000,0
1634634703.999,-20.508,-202.148,-929.688,204.590,0.000,0
1634634704.003,-947.754,-998.535,405.273,-1000.000,0.000,0
1634634704.007,-959.961,-917.480,-123.047,-956.543,0.000,0
1634634704.011,526.855,248.047,-263.672,-1000.000,0.000,0
1634634704.015,-1000.000,-1000.000,-114.746,382.324,0.000,0
1634634704.019,-243.164,-207.520,981.445,306.641,0.000,0
1634634704.022,-985.840,-995.117,709.961,-1000.000,0.000,0
1634634704.026,-933.105,-927.734,-17.090,-1000.000,0.000,0
1634634704.030,491.211,232.910,-651.367,-614.746,0.000,0
1634634704.033,-1000.000,-1000.000,-92.773,-999.512,0.000,0
1634634704.036,-236.328,-381.836,-976.074,507.812,0.000,0
1634634704.040,-987.793,923.828,909.180,-928.223,0.000,0
1634634704.044,-950.684,-901.367,175.781,-1000.000,0.000,0
1634634704.048,605.957,360.352,-748.047,-588.379,0.000,0
1634634704.052,-1000.000,-1000.000,-200.684,861.816,0.000,0
1634634704.056,-358.887,-597.168,-981.934,982.910,0.000,0
1634634704.059,996.094,825.684,709.961,-413.574,0.000,0
1634634704.063,-976.562,-861.328,-375.000,-1000.000,0.000,0
1634634704.067,743.164,318.848,-1000.000,-878.418,0.000,0
1634634704.071,-860.352,-1000.000,-459.961,406.250,0.000,0
1634634704.075,-581.055,-958.984,907.227,-820.801,0.000,0
1634634704.078,931.152,356.934,564.453,-166.992,0.000,0
1634634704.082,-996.094,-787.109,-613.281,-1000.000,0.000,0
1634634704.086,908.691,337.891,-1000.000,-1000.000,0.000,0
1634634704.090,-544.434,-958.984,-703.613,28.320,0.000,0
1634634704.093,-861.328,-1000.000,672.852,-768.066,0.000,0
1634634704.097,750.977,105.957,732.910,152.344,0.000,0
1634634704.101,987.793,-885.742,-420.898,-1000.000,0.000,0
1634634704.105,-938.477,862.793,-1000.000,-1000.000,0.000,0
1634634704.109,-20.020,-407.227,-655.273,50.293,0.000,0
1634634704.112,-1000.000,-1000.000,677.734,-783.691,0.000,0
1634634704.116,413.574,-14.648,-925.293,187.012,0.000,0
1634634704.120,-961.426,-960.449,270.508,-1000.000,0.000,0
1634634704.124,-944.824,-978.027,-308.105,-834.473,0.000,0
1634634704.128,225.098,-94.727,73.730,528.809,0.000,0
1634634704.132,-1000.000,-1000.000,732.422,-924.316,0.000,0
1634634704.136,102.539,-156.250,-961.914,946.289,0.000,0
1634634704.140,-938.477,-997.559,548.340,-528.320,0.000,1
1634634704.143,-950.684,-934.082,-239.258,-523.926,0.000,0
1634634704.147,235.840,34.668,-500.000,966.309,0.000,0
1634634704.151,-1000.000,-1000.000,466.309,-949.219,0.000,0
1634634704.155,-102.539,-187.500,-845.703,735.352,0.000,0
1634634704.159,-971.191,-997.559,6.348,-859.375,0.000,0
1634634704.163,-933.105,-927.734,-1000.000,-557.129,0.000,0
1634634704.166,230.469,71.777,-1000.000,915.039,0.000,0
1634634704.170,-1000.000,-1000.000,-327.637,-886.719,0.000,0
1634634704.174,-194.336,-182.617,452.148,426.758,0.000,0
1634634704.177,991.699,991.699,-551.758,-870.605,0.000,0
1634634704.181,-919.922,-921.875,-1000.000,-1000.000,0.000,0
1634634704.185,418.457,231.445,-971.680,-244.629,0.000,0
1634634704.189,-1000.000,-1000.000,-977.051,-849.609,0.000,0
1634634704.193,-222.168,-348.633,-143.066,481.934,0.000,0
1634634704.196,-987.793,936.035,-247.559,-888.184,0.000,0
1634634704.200,-969.238,-908.203,-1000.000,-1000.000,0.000,0
1634634704.204,694.336,401.367,-1000.000,-294.434,0.000,0
1634634704.208,-928.223,-1000.000,-849.121,973.145,0.000,0
1634634704.212,-377.441,-617.676,346.680,-976.074,0.000,0
1634634704.215,-1000.000,820.312,72.754,-181.152,0.000,0
1634634704.219,-976.562,-856.934,-1000.000,-1000.000,0.000,0
1634634704.223,742.676,244.629,-1000.000,-512.207,0.000,0
1634634704.227,-855.957,-1000.000,-830.078,876.465,0.000,0
1634634704.230,-619.629,-1000.000,-580.566,-955.566,0.000,0
1634634704.234,929.199,239.746,-882.324,-190.430,0.000,0
1634634704.238,962.891,-810.547,-1000.000,-1000.000,0.000,0
1634634704.242,-953.125,592.773,-1000.000,-312.500,0.000,0
1634634704.246,-283.691,-764.648,-953.613,935.547,0.000,0
1634634704.250,-907.227,-1000.000,-858.887,-911.133,0.000,0
1634634704.253,720.703,53.711,-954.102,122.070,0.000,0
1634634704.257,990.234,-919.922,-992.188,-1000.000,0.000,0
1634634704.261,-925.781,931.641,-1000.000,-565.918,0.000,0
1634634704.264,82.031,-285.156,-958.008,814.941,0.000,0
1634634704.268,-1000.000,-1000.000,-739.746,-854.980,0.000,0
1634634704.272,400.879,-116.699,-859.375,170.898,0.000,0
1634634704.276,-954.102,-997.070,-1000.000,-1000.000,0.000,0
1634634704.280,-946.289,-939.453,-994.141,-957.520,0.000,0
1634634704.283,225.098,26.367,-1000.000,334.473,0.000,0
1634634704.287,-1000.000,-1000.000,-565.918,-781.250,0.000,0
1634634704.291,105.957,-176.758,-644.531,147.461,0.000,0
1634634704.295,-942.871,987.793,-1000.000,-1000.000,0.000,0
1634634704.299,-949.219,-913.574,-935.059,-1000.000,0.000,0
1634634704.303,303.711,223.145,-1000.000,142.090,0.000,0
1634634704.306,-1000.000,-1000.000,-448.242,-764.648,0.000,0
1634634704.310,-100.586,-203.613,723.633,319.824,0.000,0
1634634704.314,-977.539,-997.559,-186.523,-946.777,0.000,0
1634634704.317,-943.359,-920.410,-984.863,-1000.000,0.000,0
1634634704.321,519.043,226.074,-388.184,-126.953,0.000,0
1634634704.325,-1000.000,-1000.000,363.770,-812.012,0.000,0
1634634704.329,-241.211,-239.258,-999.512,441.406,0.000,0
1634634704.333,-975.098,977.539,542.969,-902.344,0.000,0
1634634704.336,-984.375,-921.387,-31.250,-1000.000,0.000,0
1634634704.340,762.207,419.922,345.703,-235.352,0.000,0
1634634704.344,-840.332,-1000.000,640.625,-889.160,0.000,0
1634634704.348,-297.852,-407.715,942.871,677.246,0.000,0
1634634704.351,-938.965,935.059,401.367,-693.848,0.000,0
1634634704.355,953.125,-923.828,-626.953,-1000.000,0.000,0
1634634704.359,976.074,583.984,-786.621,-403.320,0.000,0
1634634704.363,-534.668,-1000.000,-624.023,991.211,0.000,0
1634634704.366,-343.262,-626.953,367.676,863.770,0.000,0
1634634704.370,-914.551,862.793,-1.465,-494.629,0.000,0
1634634704.374,901.855,-952.148,-1000.000,-1000.000,0.000,0
1634634704.378,-889.648,810.059,-972.656,-557.617,0.000,0
1634634704.382,-250.000,-684.570,-1000.000,840.332,0.000,0
1634634704.386,-543.945,-835.938,-652.344,-979.980,0.000,0
1634634704.389,997.070,723.145,-398.438,-199.707,0.000,0
1634634704.393,942.383,-924.316,-981.934,-1000.000,0.000,0
1634634704.396,-904.297,824.219,-1000.000,-801.270,0.000,0
1634634704.400,-225.586,-515.625,-978.027,505.859,0.000,0
1634634704.404,-726.562,-1000.000,-985.840,-802.246,0.000,0
1634634704.408,898.438,280.762,-960.449,162.109,0.000,0
1634634704.412,971.191,-875.488,-1000.000,-1000.000,0.000,0
1634634704.416,-923.340,831.055,-1000.000,-957.520,0.000,0
1634634704.419,-71.777,-453.125,-999.023,334.473,0.000,0
1634634704.423,-981.445,-1000.000,-1000.000,-778.320,0.000,0
1634634704.427,582.520,47.852,-1000.000,140.137,0.000,0
1634634704.431,-978.027,-919.434,-1000.000,-1000.000,0.000,0
1634634704.435,-937.012,941.895,-1000.000,-1000.000,0.000,0
1634634704.438,95.215,-290.527,-1000.000,68.848,0.000,0
1634634704.442,-1000.000,-1000.000,-1000.000,-826.172,0.000,0
1634634704.446,307.129,-117.676,-1000.000,43.945,0.000,0
1634634704.450,-949.707,-933.594,-1000.000,-1000.000,0.000,0
1634634704.454,-956.055,842.773,-1000.000,-1000.000,0.000,0
1634634704.458,244.629,-489.258,-963.867,-270.508,0.000,0
1634634704.462,-1000.000,-1000.000,-1000.000,-862.793,0.000,0
1634634704.465,-102.051,-155.273,-540.527,623.047,0.000,0
1634634704.469,-971.191,968.750,-340.820,-1000.000,0.000,0
1634634704.473,-933.105,-916.504,-795.410,-556.641,0.000,0
1634634704.477,230.469,182.617,-754.395,972.168,0.000,0
1634634704.481,-1000.000,-1000.000,51.270,986.328,0.000,0
1634634704.484,-204.102,-244.629,-999.023,916.504,0.000,0
1634634704.488,-998.047,988.281,916.992,981.934,0.000,0
1634634704.492,-918.945,-913.086,945.801,973.145,0.000,0
1634634704.496,222.656,168.945,895.996,898.438,0.000,0
1634634704.500,-1000.000,-1000.000,928.711,-892.578,0.000,0
1634634704.504,-190.918,-196.289,978.516,271.973,0.000,0
1634634704.508,990.723,999.023,957.520,-962.891,0.000,0
1634634704.511,-932.129,-931.641,962.891,-1000.000,0.000,0
1634634704.515,517.578,225.586,967.773,-521.973,0.000,0
1634634704.519,-1000.000,-1000.000,967.285,811.035,0.000,0
1634634704.523,-341.797,-708.008,967.285,-849.609,0.000,0
1634634704.527,-999.512,659.180,965.820,195.801,0.000,0
1634634704.530,994.629,-838.867,969.238,-1000.000,0.000,0
1634634704.534,866.211,448.242,964.355,-222.656,0.000,0
1634634704.538,-703.613,-1000.000,952.148,-967.285,0.000,0
1634634704.542,-517.578,-855.469,965.820,-970.703,0.000,0
1634634704.546,998.047,546.875,968.262,-56.152,0.000,0
1634634704.550,954.102,-831.055,964.844,-1000.000,0.000,0
1634634704.553,-967.285,518.066,958.984,-544.434,0.000,0
1634634704.557,-223.145,-863.770,952.148,801.270,0.000,0
1634634704.561,-555.176,-1000.000,967.773,-856.934,0.000,0
1634634704.565,902.832,216.797,965.820,195.312,0.000,0
1634634704.569,941.895,-931.641,942.383,-1000.000,0.000,0
1634634704.573,-893.066,991.699,938.477,-719.727,0.000,0
1634634704.576,150.391,-154.297,916.504,670.898,0.000,0
1634634704.580,-933.105,-1000.000,931.152,-824.707,0.000,0
1634634704.584,559.570,-1.465,946.777,150.391,0.000,0
1634634704.588,-967.773,-943.848,906.250,-1000.000,0.000,0
1634634704.592,-942.871,-988.281,899.414,-1000.000,0.000,0
1634634704.595,218.262,-114.746,891.113,151.855,0.000,0
1634634704.599,-1000.000,-1000.000,936.523,-765.137,0.000,0
1634634704.603,186.523,-165.527,964.844,138.672,0.000,0
1634634704.607,-934.082,983.398,925.781,-1000.000,0.000,0
1634634704.611,-950.684,-916.016,903.320,-1000.000,0.000,0
1634634704.615,230.469,160.645,854.004,-36.621,0.000,0
1634634704.618,-1000.000,-1000.000,886.719,-781.738,0.000,0
1634634704.622,0.488,-194.824,947.754,337.402,0.000,0
1634634704.626,-951.172,998.047,784.668,-944.824,0.000,0
1634634704.630,-945.801,-916.992,749.512,-1000.000,0.000,0
1634634704.634,237.793,224.121,478.516,-239.746,0.000,0
1634634704.638,-1000.000,-1000.000,576.660,-851.562,0.000,0
1634634704.641,-194.336,-219.727,969.238,545.410,0.000,0
1634634704.645,991.699,997.559,838.379,-854.980,0.000,0
1634634704.649,-919.922,-924.805,804.688,-1000.000,0.000,0
1634634704.653,418.457,231.934,797.852,-217.285,0.000,0
1634634704.657,-1000.000,-1000.000,845.703,-925.781,0.000,0
1634634704.660,-222.168,-393.066,935.547,811.523,0.000,0
1634634704.664,-984.375,919.922,869.141,-540.527,0.000,0
1634634704.668,-975.586,-898.926,779.785,-1000.000,0.000,0
1634634704.672,738.770,349.121,647.461,-180.664,0.000,0
1634634704.676,-871.582,-1000.000,590.820,-991.699,0.000,0
1634634704.679,-290.039,-629.883,876.465,-980.957,0.000,0
1634634704.683,-952.148,808.594,877.930,-193.359,0.000,0
1634634704.687,978.027,-916.992,722.656,-1000.000,0.000,0
1634634704.691,874.023,307.617,666.016,-279.785,0.000,0
1634634704.695,-706.543,-1000.000,629.395,910.645,0.000,0
1634634704.698,-517.578,-867.188,856.934,-916.016,0.000,0
1634634704.702,-997.070,515.625,881.348,-7.324,0.000,0
1634634704.706,938.965,-845.215,418.945,-1000.000,0.000,0
1634634704.710,-928.711,608.887,10.742,-462.891,0.000,0
1634634704.714,-320.312,-775.391,-125.488,861.816,0.000,0
1634634704.718,-733.398,-1000.000,516.113,-876.465,0.000,0
1634634704.721,906.250,208.984,881.348,202.148,0.000,0
1634634704.725,965.332,-854.492,82.520,-1000.000,0.000,0
1634634704.729,-922.363,756.348,-384.277,-719.727,0.000,0
1634634704.733,-69.824,-548.828,9.766,670.898,0.000,0
1634634704.737,-979.980,-1000.000,752.441,-833.496,0.000,0
1634634704.740,575.684,-61.523,983.398,197.754,0.000,0
1634634704.744,-965.332,-880.371,857.910,-1000.000,0.000,0
1634634704.748,-957.520,770.996,952.637,-560.059,0.000,0
1634634704.752,11.230,-556.152,975.098,826.172,0.000,0
1634634704.756,-1000.000,-1000.000,963.379,-864.258,0.000,0
1634634704.759,230.957,-156.250,968.262,305.176,0.000,0
1634634704.763,-947.754,967.773,963.867,-1000.000,0.000,0
1634634704.767,-947.754,-915.527,959.473,-577.148,0.000,0
1634634704.771,230.957,167.480,954.102,843.262,0.000,0
1634634704.775,-1000.000,-1000.000,962.891,-856.445,0.000,0
1634634704.778,0.000,-208.984,968.750,143.066,0.000,0
1634634704.782,-951.660,-981.445,966.797,-1000.000,0.000,0
1634634704.786,-945.801,-938.477,967.773,-1000.000,0.000,0
1634634704.790,237.305,15.137,958.496,-65.918,0.000,0
1634634704.794,-1000.000,-1000.000,962.891,-792.480,0.000,0
1634634704.798,-192.871,-176.270,969.727,432.129,0.000,0
1634634704.801,992.188,987.793,951.660,-896.973,0.000,0
1634634704.805,-920.410,-920.898,927.246,-1000.000,0.000,0
1634634704.809,418.457,231.445,901.855,-230.957,0.000,0
1634634704.813,-1000.000,-1000.000,914.551,-902.344,0.000,0
1634634704.817,-224.609,-358.398,941.895,733.887,0.000,0
1634634704.821,-994.141,945.312,900.391,-642.578,0.000,0
1634634704.825,-932.617,-906.250,860.352,-1000.000,0.000,0
1634634704.829,511.230,222.656,833.008,-196.777,0.000,0
1634634704.832,-1000.000,-1000.000,834.961,-957.520,0.000,0
1634634704.836,-240.723,-544.922,919.922,923.828,0.000,0
1634634704.840,-977.051,830.566,902.832,-367.676,0.000,0
1634634704.844,-985.352,-867.676,862.305,-1000.000,0.000,0
1634634704.848,746.582,364.746,821.289,-173.340,0.000,0
1634634704.851,-872.070,-1000.000,750.977,-1000.000,0.000,0
1634634704.856,-443.359,-813.477,899.414,-961.426,0.000,0
1634634704.860,-981.445,570.801,915.527,-73.730,0.000,0
1634634704.863,937.012,-838.379,733.398,-1000.000,0.000,0
1634634704.867,-944.824,544.434,643.066,-367.676,0.000,0
1634634704.871,-283.691,-864.746,623.047,914.062,0.000,0
1634634704.875,-557.617,-1000.000,831.055,-901.367,0.000,0
1634634704.879,951.660,279.785,916.992,116.699,0.000,0
1634634704.882,944.824,-862.793,338.379,-1000.000,0.000,0
1634634704.886,-902.832,766.602,-140.137,-576.172,0.000,0
1634634704.890,-109.863,-557.617,-241.211,804.199,0.000,0
1634634704.894,-856.445,-1000.000,275.391,-855.957,0.000,0
1634634704.898,746.582,90.820,722.656,183.594,0.000,0
1634634704.902,995.605,-919.434,-174.805,-1000.000,0.000,0
1634634704.906,-926.758,947.266,-913.574,-845.215,0.000,0
1634634704.910,83.008,-250.977,-629.395,507.324,0.000,0
1634634704.913,-1000.000,-1000.000,375.977,-800.293,0.000,0
1634634704.917,400.879,-107.422,976.074,147.461,0.000,0
1634634704.921,-954.102,-984.863,266.113,-1000.000,0.000,0
1634634704.925,-946.289,-952.637,17.578,-1000.000,0.000,0
1634634704.929,225.098,-34.180,117.676,145.996,0.000,0
1634634704.932,-1000.000,-1000.000,502.930,-762.695,0.000,0
1634634704.936,102.539,-172.852,-995.117,236.328,0.000,0
1634634704.940,-938.477,987.793,583.984,-993.164,0.000,0
1634634704.944,-950.195,-916.016,533.691,-1000.000,0.000,0
1634634704.948,235.840,174.316,194.336,-55.664,0.000,0
1634634704.952,-1000.000,-1000.000,335.449,-792.480,0.000,0
1634634704.956,-97.168,-196.777,-962.891,400.391,0.000,0
1634634704.960,-977.539,999.512,454.590,-918.457,0.000,0
1634634704.963,-931.152,-923.340,86.914,-1000.000,0.000,0
1634634704.967,329.590,230.469,-327.637,-197.266,0.000,0
1634634704.971,-1000.000,-1000.000,-201.660,-872.559,0.000,1
1634634704.975,-207.031,-336.426,924.805,659.668,0.000,0
1634634704.979,998.047,954.590,520.020,-723.633,0.000,0
1634634704.982,-929.688,-908.691,117.188,-1000.000,0.000,0
1634634704.986,511.719,224.121,-70.312,-211.914,0.000,0
1634634704.990,-1000.000,-1000.000,93.262,-924.316,0.000,0
1634634704.995,-240.723,-501.465,925.293,811.523,0.000,0
1634634704.999,-977.051,864.258,868.164,-540.527,0.000,0
1634634705.002,-983.398,-875.977,693.848,-1000.000,0.000,0
1634634705.006,744.629,293.457,652.344,-180.664,0.000,0
1634634705.010,-873.535,-1000.000,680.176,-989.746,0.000,0
1634634705.014,-392.578,-762.695,911.133,-983.398,0.000,0
1634634705.018,-973.633,613.281,918.457,-178.711,0.000,0
1634634705.022,955.566,-835.938,845.215,-1000.000,0.000,0
1634634705.025,980.469,490.723,811.523,-269.531,0.000,0
1634634705.029,-523.438,-919.922,736.816,960.449,0.000,0
1634634705.033,-632.324,-1000.000,881.348,-929.199,0.000,0
1634634705.037,960.938,333.984,918.945,22.949,0.000,0
1634634705.041,948.242,-855.957,645.508,-1000.000,0.000,0
1634634705.045,-920.410,728.516,541.016,-466.309,0.000,0
1634634705.049,-191.895,-608.887,604.004,865.234,0.000,0
1634634705.052,-867.676,-1000.000,830.078,-877.930,0.000,0
1634634705.056,759.766,121.094,896.973,182.129,0.000,0
1634634705.060,983.398,-922.852,292.480,-1000.000,0.000,0
1634634705.064,-920.410,963.867,65.918,-716.797,0.000,0
1634634705.068,161.621,-221.191,126.953,669.434,0.000,0
1634634705.071,-1000.000,-1000.000,527.832,-828.125,0.000,0
1634634705.075,389.648,-62.988,-996.582,164.551,0.000,0
1634634705.079,-948.242,-975.586,127.441,-1000.000,0.000,0
1634634705.083,-948.242,-954.102,-625.488,-957.520,0.000,0
1634634705.087,224.609,-6.348,-645.508,334.473,0.000,0
1634634705.091,-1000.000,-1000.000,-93.262,-778.809,0.000,0
1634634705.095,106.934,-172.852,704.102,139.648,0.000,0
1634634705.098,-939.453,985.352,-191.406,-1000.000,0.000,0
1634634705.102,-944.824,-912.598,-1000.000,-1000.000,0.000,0
1634634705.106,227.051,221.680,-977.539,43.945,0.000,0
1634634705.110,-1000.000,-1000.000,-744.629,-768.555,0.000,0
1634634705.114,-1.953,-203.125,-274.902,237.793,0.000,0
1634634705.117,-963.379,-997.070,-607.910,-988.770,0.000,0
1634634705.121,-945.801,-921.387,-1000.000,-1000.000,0.000,0
1634634705.125,432.617,227.051,-986.816,-158.691,0.000,0
1634634705.129,-1000.000,-1000.000,-988.770,-815.430,0.000,0
1634634705.133,-224.121,-265.625,-804.199,447.754,0.000,0
1634634705.137,-994.141,981.934,-803.223,-902.344,0.000,0
1634634705.140,-934.570,-919.434,-1000.000,-1000.000,0.000,0
1634634705.144,528.320,229.492,-994.141,-233.398,0.000,0
1634634705.148,-1000.000,-1000.000,-1000.000,-895.508,0.000,0
1634634705.152,-244.141,-455.078,-837.402,708.008,0.000,0
1634634705.156,-975.586,886.230,-791.992,-676.758,0.000,0
1634634705.160,-978.027,-887.207,-1000.000,-1000.000,0.000,0
1634634705.163,738.770,358.887,-1000.000,-197.266,0.000,0
1634634705.167,-871.582,-1000.000,-987.793,-958.496,0.000,0
1634634705.171,-292.969,-680.664,-904.297,918.945,0.000,0
1634634705.175,-938.965,726.074,-897.461,-361.328,0.000,0
1634634705.179,943.359,-858.398,-1000.000,-1000.000,0.000,0
1634634705.183,986.328,506.348,-1000.000,-272.461,0.000,0
1634634705.187,-533.691,-936.523,-992.676,966.309,0.000,0
1634634705.191,-539.062,-955.078,-967.773,-948.730,0.000,0
1634634705.195,-990.234,439.453,-972.168,-79.590,0.000,0
1634634705.198,929.688,-862.793,-1000.000,-1000.000,0.000,0
1634634705.202,-903.320,712.402,-1000.000,-460.938,0.000,0
1634634705.206,-226.074,-639.160,-1000.000,865.234,0.000,0
1634634705.210,-728.027,-1000.000,-996.582,-882.324,0.000,0
1634634705.214,906.738,168.457,-993.164,100.586,0.000,0
1634634705.218,958.008,-903.809,-1000.000,-1000.000,0.000,0
1634634705.221,-906.738,917.480,-1000.000,-705.566,0.000,0
1634634705.226,49.316,-313.477,-1000.000,663.086,0.000,0
1634634705.230,-959.961,-1000.000,-1000.000,-823.242,0.000,0
1634634705.233,574.219,8.301,-1000.000,154.297,0.000,0
1634634705.237,-975.586,-960.449,-1000.000,-1000.000,0.000,0
1634634705.241,-938.965,-970.215,-1000.000,-1000.000,0.000,0
1634634705.245,215.332,-39.551,-1000.000,202.148,0.000,0
1634634705.249,-1000.000,-1000.000,-1000.000,-769.043,0.000,0
1634634705.253,204.102,-172.852,-1000.000,140.137,0.000,0
1634634705.256,-932.617,988.770,-1000.000,-1000.000,0.000,0
1634634705.260,-952.148,-917.480,-1000.000,-1000.000,0.000,0
1634634705.264,231.445,154.297,-1000.000,1.953,0.000,0
1634634705.268,-1000.000,-1000.000,-1000.000,-774.414,0.000,0
1634634705.272,5.371,-193.848,-1000.000,242.188,0.000,0
1634634705.276,-957.520,997.559,-1000.000,-991.699,0.000,0
1634634705.280,-943.848,-916.504,-1000.000,-1000.000,0.000,0
1634634705.284,337.402,223.145,-1000.000,-158.691,0.000,0
1634634705.287,-1000.000,-1000.000,-1000.000,-814.453,0.000,0
1634634705.291,-207.031,-203.613,-1000.000,444.824,0.000,0
1634634705.295,998.047,-997.070,-1000.000,-904.297,0.000,0
1634634705.299,-929.688,-926.758,-1000.000,-1000.000,0.000,0
1634634705.303,511.719,232.422,-996.582,-235.352,0.000,0
1634634705.307,-1000.000,-1000.000,-1000.000,-889.648,0.000,0
1634634705.310,-240.723,-385.254,-970.215,686.523,0.000,0
1634634705.314,-979.492,927.734,-946.777,-704.102,0.000,0
1634634705.319,-970.703,-899.902,-1000.000,-1000.000,0.000,0
1634634705.322,708.496,289.062,-999.023,-197.754,0.000,0
1634634705.326,-904.785,-1000.000,-1000.000,-958.496,0.000,0
1634634705.330,-285.645,-564.941,-983.398,918.945,0.000,0
1634634705.334,-946.289,826.172,-969.238,-361.328,0.000,0
1634634705.338,959.473,-872.070,-1000.000,-1000.000,0.000,0
1634634705.341,937.988,444.336,-1000.000,-272.461,0.000,0
1634634705.345,-606.934,-1000.000,-999.512,966.309,0.000,0
1634634705.349,-488.770,-845.215,-1000.000,-947.266,0.000,0
1634634705.353,-979.492,561.035,-1000.000,-80.078,0.000,0
1634634705.357,934.082,-851.074,-1000.000,-1000.000,0.000,0
1634634705.361,-923.828,604.492,-1000.000,-426.758,0.000,0
1634634705.365,-320.801,-789.062,-1000.000,883.301,0.000,0
1634634705.369,-694.336,-1000.000,-1000.000,-889.160,0.000,0
1634634705.373,932.129,245.605,-1000.000,108.398,0.000,0
1634634705.376,954.102,-874.512,-1000.000,-1000.000,0.000,0
1634634705.380,-908.691,817.383,-1000.000,-634.277,0.000,0
1634634705.384,-77.148,-475.098,-1000.000,740.234,0.000,0
1634634705.388,-895.508,-1000.000,-1000.000,-843.750,0.000,0
1634634705.392,696.289,52.734,-997.070,179.199,0.000,0
1634634705.395,996.582,-938.477,-999.512,-1000.000,0.000,0
1634634705.399,-920.898,990.723,-1000.000,-858.398,0.000,0
1634634705.403,183.105,-166.504,-1000.000,486.816,0.000,0
1634634705.407,-1000.000,-1000.000,-1000.000,-797.363,0.000,0
1634634705.411,385.254,-137.695,-995.605,145.508,0.000,0
1634634705.415,-945.801,-996.582,-999.023,-1000.000,0.000,0
1634634705.419,-948.730,-937.500,-1000.000,-1000.000,0.000,0
1634634705.423,225.098,22.461,-1000.000,127.930,0.000,0
1634634705.426,-1000.000,-1000.000,-1000.000,-765.625,0.000,0
1634634705.430,102.539,-177.734,-1000.000,161.133,0.000,0
1634634705.434,-938.477,989.258,-999.023,-1000.000,0.000,0
1634634705.438,-950.684,-915.039,-1000.000,-1000.000,0.000,0
1634634705.442,236.328,204.102,-992.188,-62.012,0.000,0
1634634705.446,-1000.000,-1000.000,-1000.000,-791.504,0.000,0
1634634705.449,-92.773,-200.684,-932.617,415.527,0.000,0
1634634705.453,-980.957,-998.535,-890.625,-905.762,0.000,0
1634634705.457,-934.570,-925.293,-1000.000,-1000.000,0.000,0
1634634705.461,426.270,231.445,-992.188,-236.816,0.000,0
1634634705.465,-1000.000,-1000.000,-1000.000,-889.160,0.000,0
1634634705.469,-222.656,-363.281,-802.734,686.523,0.000,0
1634634705.473,-994.141,943.359,-739.746,-704.102,0.000,0
1634634705.476,-941.406,-905.273,-1000.000,-1000.000,0.000,0
1634634705.480,582.031,222.168,-1000.000,-197.754,0.000,0
1634634705.484,-1000.000,-1000.000,-959.961,-958.984,0.000,0
1634634705.488,-256.836,-534.668,-633.789,923.828,0.000,0
1634634705.492,-962.402,838.379,-650.879,-367.676,0.000,0
1634634705.496,987.305,-869.629,-969.727,-1000.000,0.000,0
1634634705.499,847.656,351.074,-972.168,-173.340,0.000,0
1634634705.504,-739.258,-1000.000,-913.574,-1000.000,0.000,0
1634634705.508,-414.551,-801.758,-509.277,-961.426,0.000,0
1634634705.512,-963.867,581.543,-509.277,-73.242,0.000,0
1634634705.515,941.895,-831.543,-920.410,-1000.000,0.000,0
1634634705.519,-972.168,491.211,-1000.000,-374.512,0.000,0
1634634705.523,-434.082,-902.832,-852.539,924.805,0.000,0
1634634705.527,-638.184,-1000.000,-523.438,-914.551,0.000,0
1634634705.531,959.473,262.207,-606.934,15.137,0.000,0
1634634705.535,952.148,-845.215,-910.645,-1000.000,0.000,0
1634634705.538,-920.410,708.008,-1000.000,-553.711,0.000,0
1634634705.542,-191.895,-628.906,-905.273,807.129,0.000,0
1634634705.546,-867.188,-1000.000,-712.402,-855.957,0.000,0
1634634705.551,754.883,61.035,-521.484,183.594,0.000,0
1634634705.554,990.234,-915.039,-730.469,-1000.000,0.000,0
1634634705.558,-925.781,924.316,-1000.000,-845.215,0.000,0
1634634705.562,82.520,-298.828,-922.363,507.324,0.000,0
1634634705.566,-1000.000,-1000.000,-809.570,-800.293,0.000,0
1634634705.570,400.879,-119.629,-498.047,147.461,0.000,0
1634634705.574,-954.102,-987.305,-605.957,-1000.000,0.000,0
1634634705.577,-946.289,-954.102,-1000.000,-1000.000,0.000,0
1634634705.581,225.098,-52.246,-939.941,151.855,0.000,0
1634634705.585,-1000.000,-1000.000,-885.254,-764.648,0.000,0
1634634705.589,103.027,-172.363,-631.348,136.719,0.000,0
1634634705.593,-937.988,987.793,-640.625,-1000.000,0.000,0
1634634705.597,-950.195,-916.992,-1000.000,-1000.000,0.000,0
1634634705.601,236.328,158.691,-980.957,-58.594,0.000,0
1634634705.605,-1000.000,-1000.000,-958.984,-781.738,0.000,0
1634634705.609,-97.168,-194.336,-604.980,242.676,0.000,0
1634634705.612,-977.051,998.047,-591.309,-986.816,0.000,0
1634634705.616,-931.641,-922.363,-1000.000,-1000.000,0.000,0
1634634705.620,330.078,229.980,-989.746,-260.254,0.000,0
1634634705.624,-1000.000,-1000.000,-951.172,-841.309,0.000,0
1634634705.628,-207.031,-321.289,-552.246,459.473,0.000,0
1634634705.632,998.047,961.426,-545.898,-912.109,0.000,0
1634634705.635,-929.688,-911.621,-1000.000,-1000.000,0.000,0
1634634705.639,511.719,225.586,-1000.000,-235.352,0.000,0
1634634705.644,-1000.000,-1000.000,-912.109,-889.648,0.000,0
1634634705.647,-240.723,-492.188,-633.789,686.523,0.000,0
1634634705.651,-977.051,867.188,-709.473,-704.102,0.000,0
1634634705.655,-982.910,-878.906,-986.816,-1000.000,0.000,0
1634634705.659,745.117,337.402,-987.305,-197.754,0.000,0
1634634705.663,-873.535,-1000.000,-935.547,-958.496,0.000,0
1634634705.667,-392.578,-728.516,-712.891,914.551,0.000,0
1634634705.670,-973.145,669.922,-781.738,-357.422,0.000,0
1634634705.674,956.055,-845.703,-990.234,-1000.000,0.000,0
1634634705.678,980.469,493.164,-993.652,-369.141,0.000,0
1634634705.682,-523.926,-928.711,-954.102,924.316,0.000,0
1634634705.686,-628.418,-993.652,-779.297,-933.594,0.000,0
1634634705.690,963.379,378.418,-780.762,-87.402,0.000,0
1634634705.694,947.266,-856.934,-986.328,-1000.000,0.000,0
1634634705.698,-915.527,718.750,-1000.000,-548.828,0.000,0
1634634705.702,-208.008,-624.023,-962.402,809.082,0.000,0
1634634705.705,-797.852,-1000.000,-887.207,-862.305,0.000,0
1634634705.709,830.566,134.766,-853.027,82.520,0.000,0
1634634705.713,971.680,-915.039,-964.355,-1000.000,0.000,0
1634634705.717,-909.180,944.336,-1000.000,-830.566,0.000,0
1634634705.721,55.664,-258.789,-975.586,500.000,0.000,0
1634634705.725,-958.008,-1000.000,-948.242,-797.852,0.000,0
1634634705.728,573.242,-42.969,-868.164,146.973,0.000,0
1634634705.732,-975.098,-972.168,-929.688,-1000.000,0.000,0
1634634705.737,-938.965,-958.008,-1000.000,-1000.000,0.000,0
1634634705.740,215.332,-13.672,-983.887,151.855,0.000,0
1634634705.744,-1000.000,-1000.000,-994.141,-765.137,0.000,0
1634634705.748,204.102,-173.828,-847.168,138.672,0.000,0
1634634705.752,-932.617,987.793,-860.840,-1000.000,0.000,0
1634634705.756,-952.148,-915.039,-1000.000,-1000.000,0.000,0
1634634705.760,231.445,187.988,-975.586,-29.785,0.000,0
1634634705.763,-1000.000,-1000.000,-1000.000,-778.809,0.000,0
1634634705.767,9.766,-198.730,-783.203,245.605,0.000,0
1634634705.771,-961.426,-999.512,-728.027,-993.652,0.000,1
1634634705.775,-947.266,-918.945,-1000.000,-1000.000,0.000,0
1634634705.779,433.594,225.586,-963.867,-158.691,0.000,0
1634634705.783,-1000.000,-1000.000,-1000.000,-814.453,0.000,0
1634634705.787,-222.168,-245.605,-722.656,444.824,0.000,0
1634634705.791,-993.652,988.770,-651.367,-904.297,0.000,0
1634634705.794,-943.359,-921.875,-1000.000,-1000.000,0.000,0
1634634705.798,599.609,230.469,-966.309,-235.352,0.000,0
1634634705.802,-1000.000,-1000.000,-991.211,-889.648,0.000,0
1634634705.806,-261.230,-419.922,-619.141,686.523,0.000,0
1634634705.810,-958.984,903.809,-567.383,-704.102,0.000,0
1634634705.814,986.328,-894.043,-987.793,-1000.000,0.000,0
1634634705.817,863.770,379.883,-965.332,-190.430,0.000,0
1634634705.821,-708.008,-1000.000,-958.008,-977.539,0.000,0
1634634705.825,-321.289,-623.535,-661.133,976.074,0.000,0
1634634705.829,-921.875,791.992,-664.551,-269.531,0.000,0
1634634705.833,912.109,-874.512,-971.191,-1000.000,0.000,0
1634634705.837,-916.504,530.273,-967.285,-167.969,0.000,0
1634634705.841,-351.074,-941.406,-941.406,991.211,0.000,0
1634634705.845,-553.223,-910.156,-653.320,-936.523,0.000,0
1634634705.848,-987.305,518.066,-617.188,24.414,0.000,0
1634634705.852,923.828,-880.371,-946.289,-1000.000,0.000,0
1634634705.856,-884.277,745.605,-985.352,-262.207,0.000,0
1634634705.860,-124.512,-603.027,-901.855,958.496,0.000,0
1634634705.864,-708.008,-1000.000,-648.438,-909.180,0.000,0
1634634705.868,906.250,209.961,-497.070,226.074,0.000,0
1634634705.871,954.102,-909.180,-846.680,-1000.000,0.000,0
1634634705.875,-897.461,938.965,-983.398,-399.414,0.000,0
1634634705.879,143.555,-268.066,-817.383,927.246,0.000,0
1634634705.883,-907.227,-1000.000,-675.293,-899.902,0.000,0
1634634705.887,593.262,23.438,-339.355,218.750,0.000,0
1634634705.891,-974.609,-956.543,-606.934,-1000.000,0.000,0
1634634705.895,-936.035,-970.703,-913.574,-580.566,0.000,0
1634634705.898,204.102,-30.762,-710.449,822.754,0.000,0
1634634705.902,-1000.000,-1000.000,-771.973,-861.328,0.000,0
1634634705.906,266.602,-174.316,-137.207,185.547,0.000,0
1634634705.910,-937.012,990.234,-304.688,-1000.000,0.000,0
1634634705.914,-949.707,-918.457,-885.254,-817.383,0.000,0
1634634705.918,227.051,143.555,-737.793,524.902,0.000,0
1634634705.922,-1000.000,-1000.000,-730.469,-804.199,0.000,0
1634634705.926,56.152,-192.383,156.250,308.594,0.000,0
1634634705.930,-951.172,996.582,-174.316,-982.422,0.000,0
1634634705.934,-944.336,-916.016,-831.543,-1000.000,0.000,0
1634634705.938,333.984,222.656,-726.074,152.832,0.000,0
1634634705.941,-1000.000,-1000.000,-645.508,-779.785,0.000,0
1634634705.945,-126.465,-203.613,381.348,441.895,0.000,0
1634634705.949,-980.469,-997.070,-91.797,-892.578,0.000,0
1634634705.953,-941.406,-927.246,-769.531,-1000.000,0.000,0
1634634705.957,517.578,233.398,-620.117,-30.273,0.000,0
1634634705.961,-1000.000,-1000.000,-600.098,-843.262,0.000,0
1634634705.964,-240.723,-395.508,351.074,659.180,0.000,0
1634634705.969,-977.539,922.852,-20.996,-688.965,0.000,0
1634634705.973,-978.027,-897.949,-722.168,-1000.000,0.000,0
1634634705.977,738.770,293.945,-628.418,-197.754,0.000,0
1634634705.980,-871.582,-1000.000,-597.168,-958.984,0.000,0
1634634705.984,-292.480,-582.520,243.164,923.828,0.000,0
1634634705.988,-942.383,817.871,65.918,-367.676,0.000,0
1634634705.992,954.590,-866.211,-640.137,-1000.000,0.000,0
1634634705.996,959.961,402.832,-709.961,-173.340,0.000,0
1634634706.000,-571.289,-1000.000,-577.148,-1000.000,0.000,0
1634634706.003,-438.965,-858.398,238.281,-951.660,0.000,0
1634634706.007,-948.730,531.250,190.430,-83.984,0.000,0
1634634706.011,914.062,-847.656,-524.902,-1000.000,0.000,0
1634634706.015,-895.508,610.352,-692.383,-171.875,0.000,0
1634634706.019,-239.746,-775.391,-620.117,989.258,0.000,0
1634634706.023,-640.137,-1000.000,-19.531,-931.152,0.000,0
1634634706.027,962.891,222.656,199.219,132.812,0.000,0
1634634706.031,937.500,-875.488,-497.070,-1000.000,0.000,0
1634634706.035,-888.184,826.660,-852.539,-452.148,0.000,0
1634634706.038,13.184,-459.961,-681.641,884.277,0.000,0
1634634706.042,-834.961,-1000.000,-379.395,-883.789,0.000,0
1634634706.046,737.793,41.992,10.742,204.102,0.000,0
1634634706.050,995.605,-942.871,-423.340,-1000.000,0.000,0
1634634706.054,-921.875,-999.512,-897.461,-719.727,0.000,0
1634634706.058,184.082,-146.484,-680.176,670.898,0.000,0
1634634706.062,-1000.000,-1000.000,-428.711,-829.102,0.000,0
1634634706.066,386.230,-148.926,216.797,165.527,0.000,0
1634634706.070,-946.289,999.512,-173.828,-1000.000,0.000,0
1634634706.074,-949.219,-933.594,-730.957,-942.383,0.000,0
1634634706.077,225.098,36.133,-597.168,343.262,0.000,0
1634634706.081,-1000.000,-1000.000,-414.551,-779.785,0.000,0
1634634706.085,104.004,-178.223,452.148,243.652,0.000,0
1634634706.089,-939.941,989.258,-50.781,-1000.000,0.000,0
1634634706.093,-949.707,-913.574,-715.820,-1000.000,0.000,0
1634634706.097,266.602,223.145,-723.633,101.074,0.000,0
1634634706.100,-1000.000,-1000.000,-594.727,-778.320,0.000,0
1634634706.104,-97.656,-203.613,364.746,422.852,0.000,0
1634634706.109,-978.516,-997.070,-145.996,-895.020,0.000,0
1634634706.112,-935.547,-925.293,-824.707,-1000.000,0.000,0
1634634706.116,426.270,231.445,-777.832,-136.719,0.000,0
1634634706.120,-1000.000,-1000.000,-607.910,-852.539,0.000,0
1634634706.124,-222.168,-356.934,324.707,627.930,0.000,0
1634634706.128,-993.652,945.801,-114.746,-744.141,0.000,0
1634634706.132,-943.359,-906.250,-716.797,-1000.000,0.000,0
1634634706.135,599.609,222.656,-654.785,-210.449,0.000,0
1634634706.139,-1000.000,-1000.000,-556.641,-931.152,0.000,0
1634634706.143,-261.230,-523.926,284.180,832.520,0.000,0
1634634706.147,-958.984,843.750,-3.418,-508.789,0.000,0
1634634706.151,980.957,-872.559,-649.902,-1000.000,0.000,0
1634634706.155,870.117,375.977,-698.730,-179.688,0.000,0
1634634706.159,-709.961,-1000.000,-663.574,-990.723,0.000,0
1634634706.163,-420.898,-768.555,57.129,-980.957,0.000,0
1634634706.167,-956.543,631.348,-41.016,-167.969,0.000,0
1634634706.170,924.316,-844.238,-682.617,-1000.000,0.000,0
1634634706.174,-922.363,520.508,-791.992,-285.156,0.000,0
1634634706.178,-341.309,-920.410,-659.668,997.070,0.000,0
1634634706.182,-645.996,-976.562,-57.617,965.820,0.000,0
1634634706.186,964.355,409.668,0.977,-158.203,0.000,0
1634634706.190,942.383,-867.676,-549.805,-1000.000,0.000,0
1634634706.193,-900.391,734.375,-832.031,-463.379,0.000,0
1634634706.197,-91.309,-598.145,-673.340,857.910,0.000,0
1634634706.202,-844.727,-1000.000,-217.773,-876.465,0.000,0
1634634706.205,760.742,108.398,86.426,202.148,0.000,0
1634634706.209,984.863,-921.387,-429.199,-1000.000,0.000,0
1634634706.213,-914.062,956.543,-881.836,-719.727,0.000,0
1634634706.217,170.410,-235.840,-694.336,670.898,0.000,0
1634634706.221,-999.512,-1000.000,-432.617,-828.613,0.000,0
1634634706.224,457.031,-70.801,163.086,164.551,0.000,0
1634634706.228,-957.520,-976.562,-251.465,-1000.000,0.000,0
1634634706.232,-937.988,-949.707,-901.367,-964.355,0.000,0
1634634706.236,200.684,-44.434,-727.051,353.027,0.000,0
1634634706.240,-1000.000,-1000.000,-488.770,-834.961,0.000,0
1634634706.244,245.605,-86.426,259.766,51.758,0.000,0
1634634706.248,-946.777,978.516,-179.688,-1000.000,0.000,0
1634634706.252,-948.242,-916.992,-807.617,-1000.000,0.000,0
1634634706.256,230.957,162.109,-725.098,38.086,0.000,0
1634634706.259,-1000.000,-1000.000,-557.129,-771.973,0.000,0
1634634706.263,6.836,-194.336,345.703,334.473,0.000,0
1634634706.267,-960.938,998.047,-115.234,-947.266,0.000,0
1634634706.271,-945.801,-920.898,-808.105,-1000.000,0.000,0
1634634706.275,401.855,228.027,-793.457,-150.879,0.000,0
1634634706.279,-1000.000,-1000.000,-688.965,-825.195,0.000,0
1634634706.282,-218.750,-289.551,195.801,506.836,0.000,0
1634634706.286,-996.582,973.633,-180.176,-864.746,0.000,0
1634634706.290,-931.641,-916.016,-841.309,-1000.000,0.000,0
1634634706.295,511.719,228.027,-811.035,-223.633,0.000,0
1634634706.298,-1000.000,-1000.000,-672.363,-911.133,0.000,0
1634634706.302,-240.723,-471.191,154.785,760.742,0.000,0
1634634706.306,-977.539,881.348,-146.973,-606.934,0.000,0
1634634706.310,-978.027,-883.301,-729.492,-1000.000,0.000,0
1634634706.314,738.770,308.105,-708.984,-185.547,0.000,0
1634634706.318,-871.582,-1000.000,-673.828,-982.422,0.000,0
1634634706.321,-293.457,-687.012,46.875,992.676,0.000,0
1634634706.325,-939.453,707.031,-67.871,-228.516,0.000,0
1634634706.329,943.359,-850.098,-665.527,-1000.000,0.000,0
1634634706.333,986.328,469.727,-786.133,-237.793,0.000,0
1634634706.337,-533.203,-956.543,-734.863,982.910,0.000,0
1634634706.341,-539.551,-954.102,-157.227,-951.172,0.000,0
1634634706.345,-992.188,418.945,-116.211,-67.383,0.000,0
1634634706.349,937.012,-841.797,-670.898,-1000.000,0.000,0
1634634706.353,-922.363,640.137,-886.230,-412.109,0.000,0
1634634706.357,-169.922,-727.051,-707.031,892.090,0.000,0
1634634706.361,-640.137,-1000.000,-223.145,-892.578,0.000,0
1634634706.364,895.508,147.949,-20.996,113.281,0.000,0
1634634706.368,958.008,-890.137,-496.094,-1000.000,0.000,0
1634634706.372,-904.297,870.117,-828.125,-578.613,0.000,0
1634634706.376,49.316,-391.602,-617.676,801.270,0.000,0
1634634706.380,-959.961,-1000.000,-371.094,-855.469,0.000,0
1634634706.384,574.219,-19.531,50.293,182.617,0.000,0
1634634706.388,-976.074,-960.938,-340.820,-1000.000,0.000,0
1634634706.392,-938.965,-978.027,-898.926,-851.074,0.000,0
1634634706.396,215.820,-91.309,-737.793,498.047,0.000,0
1634634706.400,-1000.000,-1000.000,-527.344,-799.316,0.000,0
1634634706.403,204.102,-171.875,79.590,147.461,0.000,0
1634634706.407,-932.617,991.211,-286.621,-1000.000,0.000,0
1634634706.411,-952.148,-923.340,-876.465,-1000.000,0.000,0
1634634706.415,231.445,91.797,-774.414,145.508,0.000,0
1634634706.419,-1000.000,-1000.000,-524.902,-762.695,0.000,0
1634634706.423,5.371,-185.547,306.152,236.328,0.000,0
1634634706.426,-958.008,993.164,-176.270,-993.164,0.000,0
1634634706.430,-943.848,-915.527,-795.410,-1000.000,0.000,0
1634634706.435,336.914,223.633,-740.723,-56.152,0.000,0
1634634706.439,-1000.000,-1000.000,-624.512,-794.922,0.000,0
1634634706.442,-207.031,-216.309,254.395,432.129,0.000,0
1634634706.446,997.559,998.535,-177.734,-896.973,0.000,0
1634634706.450,-930.176,-925.781,-809.570,-1000.000,0.000,0
1634634706.454,511.719,231.934,-782.227,-235.840,0.000,0
1634634706.458,-1000.000,-1000.000,-678.223,-889.648,0.000,0
1634634706.462,-240.723,-396.973,220.215,686.523,0.000,0
1634634706.465,-977.051,923.828,-122.070,-704.102,0.000,0
1634634706.469,-978.027,-898.438,-792.969,-1000.000,0.000,0
1634634706.473,738.770,271.973,-766.113,-197.754,0.000,0
1634634706.477,-871.582,-1000.000,-675.293,-958.984,0.000,0
1634634706.481,-292.480,-578.125,84.961,923.828,0.000,0
1634634706.485,-941.406,815.918,-114.746,-367.676,0.000,0
1634634706.489,952.148,-867.188,-702.148,-1000.000,0.000,0
1634634706.493,967.285,424.805,-759.766,-173.340,0.000,0
1634634706.497,-560.059,-1000.000,-680.664,-999.512,0.000,0
1634634706.501,-439.941,-861.328,-28.809,-960.938,0.000,0
1634634706.504,-950.195,533.691,-33.203,-73.242,0.000,0
1634634706.508,916.992,-843.750,-612.305,-1000.000,0.000,0
1634634706.512,-900.879,590.332,-828.613,-367.676,0.000,0
1634634706.516,-260.254,-798.828,-718.262,913.574,0.000,0
1634634706.520,-640.625,-1000.000,-241.699,-901.367,0.000,0
1634634706.524,958.496,224.609,-85.449,117.676,0.000,0
1634634706.528,945.801,-871.582,-579.590,-1000.000,0.000,0
1634634706.532,-899.902,812.012,-912.598,-565.918,0.000,0
1634634706.536,-78.125,-482.910,-671.875,814.941,0.000,0
1634634706.539,-852.051,-1000.000,-271.973,-858.887,0.000,0
1634634706.543,749.023,43.945,36.621,187.500,0.000,0
1634634706.547,989.258,-943.359,-396.484,-1000.000,0.000,0
1634634706.551,-919.922,-1000.000,-824.707,-805.664,0.000,0
1634634706.555,184.082,-147.949,-615.234,558.594,0.000,0
1634634706.559,-1000.000,-1000.000,-469.727,-809.570,0.000,0
1634634706.562,386.230,-140.625,130.371,154.297,0.000,0
1634634706.566,-946.289,-999.023,-239.258,-1000.000,0.000,0
1634634706.570,-948.730,-934.082,-867.188,-1000.000,0.000,0
1634634706.574,225.586,40.039,-740.234,226.562,0.000,0
1634634706.578,-1000.000,-1000.000,-578.613,-770.508,0.000,0
1634634706.582,102.539,-179.199,215.820,158.691,0.000,0
1634634706.586,-938.477,990.234,-193.359,-1000.000,0.000,0
1634634706.590,-950.684,-914.551,-845.215,-1000.000,0.000,0
1634634706.594,235.840,211.426,-799.805,-8.301,0.000,0
1634634706.597,-1000.000,-1000.000,-528.809,-779.297,0.000,0
1634634706.601,-92.773,-201.660,446.777,338.867,0.000,0
1634634706.605,-981.445,-998.047,-144.043,-949.707,0.000,0
1634634706.609,-934.570,-924.805,-782.715,-1000.000,0.000,0
1634634706.613,426.270,230.957,-731.934,-158.691,0.000,0
1634634706.617,-1000.000,-1000.000,-638.672,-830.078,0.000,0
1634634706.622,-222.168,-347.656,277.344,534.180,0.000,0
1634634706.625,-993.652,949.707,-131.348,-848.633,0.000,0
1634634706.629,-943.359,-907.715,-776.367,-1000.000,0.000,0
1634634706.633,599.609,223.145,-754.395,-217.285,0.000,0
1634634706.637,-1000.000,-1000.000,-705.566,-925.293,0.000,0
1634634706.641,-261.230,-517.090,160.645,812.012,0.000,0
1634634706.645,-958.496,848.633,-80.078,-540.527,0.000,0
1634634706.649,981.445,-874.023,-763.672,-1000.000,0.000,1
1634634706.652,870.117,365.234,-756.836,-180.664,0.000,0
1634634706.656,-709.961,-1000.000,-667.480,-989.746,0.000,0
1634634706.660,-420.898,-768.066,9.766,-983.887,0.000,0
1634634706.664,-956.543,628.418,-67.383,-178.711,0.000,0
1634634706.668,924.316,-842.285,-628.418,-1000.000,0.000,0
1634634706.672,-922.363,509.766,-770.020,-269.531,0.000,0
1634634706.676,-341.309,-909.668,-692.871,959.961,0.000,0
1634634706.680,-645.996,-1000.000,-120.117,-929.199,0.000,0
1634634706.684,964.844,344.727,-5.371,22.949,0.000,0
1634634706.688,942.383,-859.375,-551.270,-1000.000,0.000,0
1634634706.691,-898.926,736.328,-844.238,-465.332,0.000,0
1634634706.695,-96.680,-598.145,-707.031,863.281,0.000,0
1634634706.699,-821.289,-1000.000,-270.508,-876.465,0.000,0
1634634706.703,786.133,117.676,44.434,203.125,0.000,0
1634634706.707,979.980,-915.039,-465.820,-1000.000,0.000,0
1634634706.711,-911.621,942.383,-909.180,-710.938,0.000,0
1634634706.715,166.992,-260.254,-661.621,680.664,0.000,0
1634634706.719,-988.281,-1000.000,-347.168,-831.055,0.000,0
1634634706.723,474.121,-70.312,99.121,166.992,0.000,0
1634634706.727,-958.496,-975.098,-288.574,-1000.000,0.000,0
1634634706.731,-941.895,-957.520,-851.562,-940.918,0.000,0
1634634706.734,213.867,-30.273,-703.125,359.863,0.000,0
1634634706.738,-1000.000,-1000.000,-520.996,-782.227,0.000,0
1634634706.742,198.730,-173.828,208.984,143.066,0.000,0
1634634706.746,-932.617,988.770,-163.574,-1000.000,0.000,0
1634634706.750,-951.660,-916.992,-829.102,-1000.000,0.000,0
1634634706.754,230.957,161.621,-779.297,79.590,0.000,0
1634634706.757,-1000.000,-1000.000,-587.402,-770.020,0.000,0
1634634706.762,5.859,-194.824,303.711,335.449,0.000,0
1634634706.766,-958.008,998.535,-163.574,-949.707,0.000,0
1634634706.770,-944.336,-920.410,-825.684,-1000.000,0.000,0
1634634706.773,349.121,228.027,-790.527,-70.312,0.000,0
1634634706.777,-1000.000,-1000.000,-608.887,-872.559,0.000,0
1634634706.781,-209.473,-284.180,354.980,437.012,0.000,0
1634634706.785,999.023,975.586,-135.254,-832.520,0.000,0
1634634706.789,-930.176,-916.504,-777.344,-1000.000,0.000,0
1634634706.793,511.719,228.027,-716.797,-220.703,0.000,0
1634634706.797,-1000.000,-1000.000,-655.273,-921.875,0.000,0
1634634706.800,-240.723,-461.426,147.461,799.805,0.000,0
1634634706.804,-977.539,885.742,-144.531,-556.641,0.000,0
1634634706.809,-978.027,-884.766,-743.164,-1000.000,0.000,0
1634634706.812,738.770,316.406,-761.230,-185.547,0.000,0
1634634706.816,-871.582,-1000.000,-716.309,-979.004,0.000,0
1634634706.820,-292.969,-676.758,21.484,988.770,0.000,0
1634634706.824,-939.453,720.703,-84.473,-246.094,0.000,0
1634634706.828,943.359,-850.586,-685.547,-1000.000,0.000,0
1634634706.832,986.328,449.707,-795.898,-173.828,0.000,0
1634634706.836,-533.203,-970.703,-648.438,-999.512,0.000,0
1634634706.839,-539.551,-944.336,17.090,-955.566,0.000,0
1634634706.843,-990.234,425.781,-13.184,-41.992,0.000,0
1634634706.847,929.688,-842.285,-578.613,-1000.000,0.000,0
1634634706.851,-903.809,640.137,-814.941,-370.117,0.000,0
1634634706.855,-226.074,-729.492,-693.359,915.039,0.000,0
1634634706.859,-726.562,-1000.000,-244.629,-900.879,0.000,0
1634634706.863,899.414,153.809,-18.066,127.441,0.000,0
1634634706.867,976.562,-870.605,-492.188,-1000.000,0.000,0
1634634706.871,-962.891,812.500,-892.090,-567.383,0.000,0
1634634706.874,-39.062,-480.469,-699.219,815.430,0.000,0
1634634706.878,-949.219,-1000.000,-379.395,-858.398,0.000,0
1634634706.882,573.730,-11.719,105.469,183.594,0.000,0
1634634706.886,-978.027,-960.449,-312.988,-1000.000,0.000,0
1634634706.890,-938.965,-981.445,-895.996,-845.215,0.000,0
1634634706.894,215.332,-100.586,-700.195,507.812,0.000,0
1634634706.898,-1000.000,-1000.000,-468.262,-800.293,0.000,0
1634634706.902,204.102,-171.387,184.570,147.461,0.000,0
1634634706.906,-932.617,991.211,-207.520,-1000.000,0.000,0
1634634706.910,-952.148,-923.340,-825.684,-1000.000,0.000,0
1634634706.913,231.445,87.402,-727.539,164.062,0.000,0
1634634706.917,-1000.000,-1000.000,-532.715,-819.336,0.000,0
1634634706.921,5.371,-184.570,336.914,147.949,0.000,0
1634634706.925,-957.520,992.676,-124.512,-982.422,0.000,0
1634634706.929,-943.359,-914.551,-802.246,-1000.000,0.000,0
1634634706.933,335.938,223.145,-797.852,-58.594,0.000,0
1634634706.936,-1000.000,-1000.000,-627.930,-794.922,0.000,0
1634634706.940,-192.871,-206.055,284.668,432.617,0.000,0
1634634706.944,-998.047,-998.047,-157.227,-897.949,0.000,0
1634634706.948,-932.129,-927.246,-791.504,-1000.000,0.000,0
1634634706.952,512.695,232.910,-785.645,-224.609,0.000,0
1634634706.956,-1000.000,-1000.000,-621.094,-886.719,0.000,0
1634634706.960,-240.723,-397.461,268.066,685.059,0.000,0
1634634706.964,-979.004,924.805,-146.973,-703.613,0.000,0
1634634706.968,-972.168,-898.438,-749.512,-1000.000,0.000,0
1634634706.971,714.844,264.160,-695.312,-198.242,0.000,0
1634634706.975,-897.461,-1000.000,-660.645,-958.984,0.000,0
1634634706.979,-286.621,-569.824,69.336,924.316,0.000,0
1634634706.983,-946.777,819.824,-89.844,-367.676,0.000,0
1634634706.987,963.867,-867.676,-677.246,-1000.000,0.000,0
1634634706.991,928.223,416.504,-777.344,-173.340,0.000,0
1634634706.995,-620.117,-1000.000,-708.496,-1000.000,0.000,0
1634634706.999,-429.199,-852.539,-2.441,-957.031,0.000,0
1634634707.003,-962.891,537.598,-31.250,-77.148,0.000,0
1634634707.006,945.312,-833.496,-653.320,-1000.000,0.000,0
1634634707.010,-978.027,549.805,-813.965,-271.484,0.000,0
1634634707.014,-426.758,-852.539,-654.785,955.078,0.000,0
1634634707.018,-635.254,-1000.000,-71.289,-916.016,0.000,0
1634634707.022,963.867,229.980,27.344,125.488,0.000,0
1634634707.026,940.430,-869.629,-525.391,-1000.000,0.000,0
1634634707.029,-901.367,801.758,-834.473,-478.027,0.000,0
1634634707.033,-89.355,-499.512,-672.852,871.094,0.000,0
1634634707.037,-854.492,-1000.000,-309.082,-878.418,0.000,0
1634634707.042,750.488,50.781,27.832,202.148,0.000,0
1634634707.046,988.281,-937.500,-407.227,-1000.000,0.000,0
1634634707.049,-919.922,987.305,-896.973,-719.727,0.000,0
1634634707.053,184.082,-177.246,-718.262,670.898,0.000,0
1634634707.057,-1000.000,-1000.000,-467.285,-828.613,0.000,0
1634634707.061,386.719,-136.719,154.785,164.551,0.000,0
1634634707.065,-946.289,-994.629,-230.957,-1000.000,0.000,0
1634634707.069,-949.219,-940.430,-869.629,-953.613,0.000,0
1634634707.072,225.098,5.859,-721.191,329.590,0.000,0
1634634707.076,-1000.000,-1000.000,-499.512,-777.344,0.000,0
1634634707.080,102.539,-175.781,270.996,211.914,0.000,0
1634634707.084,-938.477,987.793,-182.129,-1000.000,0.000,0
1634634707.089,-950.195,-914.551,-809.082,-1000.000,0.000,0
1634634707.092,235.840,206.055,-741.211,46.387,0.000,0
1634634707.096,-1000.000,-1000.000,-575.684,-773.926,0.000,0
1634634707.100,-92.773,-201.172,336.426,334.473,0.000,0
1634634707.104,-981.445,-998.535,-148.926,-947.266,0.000,0
1634634707.108,-934.570,-924.316,-795.410,-1000.000,0.000,0
1634634707.112,426.270,230.957,-777.832,-150.879,0.000,0
1634634707.115,-1000.000,-1000.000,-649.902,-828.125,0.000,0
1634634707.119,-222.168,-340.332,354.492,532.715,0.000,0
1634634707.123,-993.652,953.125,-71.289,-848.145,0.000,0
1634634707.127,-943.359,-908.691,-794.922,-1000.000,0.000,0
1634634707.131,599.609,224.121,-757.812,-217.285,0.000,0
1634634707.135,-1000.000,-1000.000,-649.414,-925.293,0.000,0
1634634707.139,-261.230,-507.812,144.043,812.012,0.000,0
1634634707.143,-958.496,854.980,-136.230,-540.527,0.000,0
1634634707.147,980.957,-876.465,-719.727,-1000.000,0.000,0
1634634707.151,870.117,360.840,-743.652,-180.664,0.000,0
1634634707.155,-709.961,-1000.000,-686.523,-989.746,0.000,0
1634634707.158,-420.898,-747.070,30.762,-983.887,0.000,0
1634634707.162,-956.543,653.809,-56.641,-178.711,0.000,0
1634634707.166,925.293,-845.215,-652.832,-1000.000,0.000,0
1634634707.170,-922.363,503.906,-803.711,-269.531,0.000,0
1634634707.174,-342.285,-917.480,-710.938,959.961,0.000,0
1634634707.178,-631.836,-1000.000,-89.355,-928.711,0.000,0
1634634707.182,970.703,359.863,-3.906,22.949,0.000,0
1634634707.186,940.918,-854.980,-582.520,-1000.000,0.000,0
1634634707.190,-898.438,716.309,-869.141,-454.590,0.000,0
1634634707.194,-113.770,-623.535,-691.895,869.141,0.000,0
1634634707.197,-801.270,-1000.000,-208.496,-878.906,0.000,0
1634634707.201,809.570,116.211,62.500,205.566,0.000,0
1634634707.205,976.074,-912.109,-455.078,-1000.000,0.000,0
1634634707.209,-908.203,933.105,-839.844,-678.223,0.000,0
1634634707.213,125.488,-279.785,-621.582,716.797,0.000,0
1634634707.217,-956.055,-1000.000,-431.152,-838.379,0.000,0
1634634707.220,540.527,-62.012,84.473,171.387,0.000,0
1634634707.224,-967.773,-973.145,-277.344,-1000.000,0.000,0
1634634707.229,-940.918,-960.938,-890.137,-914.551,0.000,0
1634634707.233,214.844,-40.527,-733.887,400.391,0.000,0
1634634707.236,-1000.000,-1000.000,-522.949,-787.598,0.000,0
1634634707.240,204.102,-173.828,209.961,145.020,0.000,0
1634634707.244,-932.617,989.746,-187.012,-1000.000,0.000,0
1634634707.248,-952.148,-917.969,-833.984,-1000.000,0.000,0
1634634707.252,231.445,144.531,-742.188,109.863,0.000,0
1634634707.256,-1000.000,-1000.000,-522.461,-768.066,0.000,0
1634634707.259,5.371,-192.383,369.629,335.449,0.000,0
1634634707.263,-957.520,996.582,-150.391,-953.613,0.000,0
1634634707.267,-943.848,-919.922,-787.598,-1000.000,0.000,0
1634634707.271,337.402,227.539,-733.398,-48.340,0.000,0
1634634707.275,-1000.000,-1000.000,-620.117,-806.641,0.000,0
1634634707.279,-207.031,-274.414,282.715,504.883,0.000,0
1634634707.283,998.047,979.004,-149.902,-850.586,0.000,0
1634634707.287,-930.176,-917.969,-794.922,-1000.000,0.000,0
1634634707.291,511.719,228.516,-754.395,-223.145,0.000,0
1634634707.295,-1000.000,-1000.000,-616.211,-911.133,0.000,0
1634634707.298,-240.723,-453.125,259.277,759.766,0.000,0
1634634707.302,-977.539,892.090,-71.289,-608.887,0.000,0
1634634707.306,-978.027,-886.230,-763.672,-1000.000,0.000,0
1634634707.310,738.770,293.457,-750.488,-192.871,0.000,0
1634634707.314,-871.582,-1000.000,-671.387,-964.355,0.000,0
1634634707.318,-292.969,-656.738,58.594,944.824,0.000,0
1634634707.322,-939.453,736.328,-96.191,-328.613,0.000,0
1634634707.326,942.871,-853.516,-684.570,-1000.000,0.000,0
1634634707.330,986.328,445.312,-763.184,-173.828,0.000,0
1634634707.333,-533.691,-979.492,-699.707,-998.535,0.000,0
1634634707.337,-539.062,-926.270,-76.660,-961.426,0.000,0
1634634707.341,-990.234,450.195,-31.738,-73.730,0.000,0
1634634707.345,929.688,-841.797,-587.402,-1000.000,0.000,0
1634634707.349,-903.809,625.977,-831.055,-367.676,0.000,0
1634634707.353,-226.074,-747.070,-711.426,914.062,0.000,0
1634634707.357,-728.027,-1000.000,-210.938,-901.367,0.000,0
1634634707.360,906.738,171.875,6.836,117.188,0.000,0
1634634707.364,958.008,-883.789,-502.930,-1000.000,0.000,1
1634634707.368,-906.250,854.004,-895.996,-565.918,0.000,0
1634634707.372,49.316,-416.504,-674.805,814.941,0.000,0
1634634707.376,-959.961,-1000.000,-309.570,-858.398,0.000,0
1634634707.380,574.219,5.859,53.223,184.082,0.000,0
1634634707.384,-975.586,-953.613,-377.441,-1000.000,0.000,0
1634634707.388,-938.965,-986.816,-840.820,-845.215,0.000,0
1634634707.392,215.332,-110.840,-640.625,507.324,0.000,0
1634634707.395,-1000.000,-1000.000,-497.070,-800.293,0.000,0
1634634707.399,204.102,-171.387,151.367,147.461,0.000,0
1634634707.403,-933.105,991.699,-208.496,-1000.000,0.000,0
1634634707.407,-949.707,-925.293,-868.652,-1000.000,0.000,0
1634634707.411,227.539,73.242,-774.414,145.508,0.000,0
1634634707.415,-1000.000,-1000.000,-536.133,-762.695,0.000,0
1634634707.419,34.180,-183.105,307.617,236.328,0.000,0
1634634707.423,-952.637,991.699,-153.809,-993.652,0.000,0
1634634707.427,-943.848,-914.551,-842.773,-1000.000,0.000,0
1634634707.431,311.035,222.656,-729.980,-54.199,0.000,0
1634634707.435,-1000.000,-1000.000,-443.359,-794.922,0.000,0
1634634707.438,-143.555,-203.613,420.410,434.570,0.000,0
1634634707.442,-986.328,-997.070,-135.254,-900.391,0.000,0
1634634707.446,-934.082,-926.758,-795.898,-1000.000,0.000,0
1634634707.450,467.773,232.910,-745.605,-191.406,0.000,0
1634634707.454,-1000.000,-1000.000,-634.766,-877.930,0.000,0
1634634707.458,-230.469,-387.207,233.887,680.176,0.000,0
1634634707.462,-990.234,930.176,-141.113,-700.684,0.000,0
1634634707.466,-944.336,-900.391,-755.859,-1000.000,0.000,0
1634634707.470,599.609,246.582,-764.648,-197.754,0.000,0
1634634707.474,-1000.000,-1000.000,-684.570,-958.496,0.000,0
1634634707.478,-261.230,-559.570,116.699,924.316,0.000,0
1634634707.481,-958.496,824.219,-85.938,-367.676,0.000,0
1634634707.485,980.957,-867.676,-700.195,-1000.000,0.000,0
1634634707.489,870.117,401.367,-773.926,-173.828,0.000,0
1634634707.493,-709.961,-1000.000,-643.066,-998.047,0.000,0
1634634707.497,-420.898,-836.426,41.504,-960.938,0.000,0
1634634707.501,-956.055,553.711,-78.125,-89.355,0.000,0
1634634707.504,924.316,-834.473,-635.254,-1000.000,0.000,0
1634634707.509,-922.363,533.691,-805.664,-284.668,0.000,0
1634634707.513,-341.309,-865.234,-709.961,953.125,0.000,0
1634634707.517,-645.996,-1000.000,-169.922,-918.457,0.000,0
1634634707.520,964.355,247.559,-39.062,88.867,0.000,0
1634634707.524,942.383,-859.375,-533.203,-1000.000,0.000,0
1634634707.528,-900.879,763.184,-854.004,-473.633,0.000,0
1634634707.532,-89.355,-557.129,-686.035,868.164,0.000,0
1634634707.536,-854.492,-1000.000,-276.367,-877.930,0.000,0
1634634707.540,750.488,62.012,83.984,202.148,0.000,0
1634634707.544,988.281,-932.617,-388.184,-1000.000,0.000,0
1634634707.547,-919.434,975.098,-909.668,-719.727,0.000,0
1634634707.551,184.082,-204.590,-689.941,670.898,0.000,0
1634634707.556,-1000.000,-1000.000,-416.504,-828.613,0.000,0
1634634707.560,386.230,-118.164,124.512,164.551,0.000,0
1634634707.563,-946.289,-990.234,-250.488,-1000.000,0.000,0
1634634707.567,-948.730,-944.824,-859.863,-957.520,0.000,0
1634634707.571,225.098,-1.953,-698.242,334.473,0.000,0
1634634707.575,-1000.000,-1000.000,-496.094,-778.809,0.000,0
1634634707.579,102.539,-175.293,241.211,139.648,0.000,0
1634634707.583,-938.477,988.770,-156.250,-1000.000,0.000,0
1634634707.586,-950.684,-915.039,-812.012,-1000.000,0.000,0
1634634707.590,235.840,192.871,-791.992,40.039,0.000,0
1634634707.594,-1000.000,-1000.000,-567.871,-772.461,0.000,0
1634634707.598,-92.773,-199.219,364.746,333.984,0.000,0
1634634707.602,-981.445,-999.512,-146.973,-947.266,0.000,0
1634634707.606,-935.059,-922.852,-815.918,-1000.000,0.000,0
1634634707.610,425.781,229.492,-796.387,-150.879,0.000,0
1634634707.614,-1000.000,-1000.000,-606.934,-828.125,0.000,0
1634634707.618,-222.168,-316.895,299.805,533.203,0.000,0
1634634707.622,-994.141,962.891,-188.477,-848.145,0.000,0
1634634707.626,-943.359,-912.598,-768.555,-1000.000,0.000,0
1634634707.629,599.609,226.074,-716.309,-217.285,0.000,0
1634634707.633,-1000.000,-1000.000,-669.922,-925.293,0.000,0
1634634707.637,-260.742,-487.305,122.070,812.012,0.000,0
1634634707.641,-960.938,869.629,-114.746,-540.527,0.000,0
1634634707.645,988.770,-880.371,-716.797,-1000.000,0.000,0
1634634707.649,845.703,348.145,-760.254,-180.664,0.000,0
1634634707.653,-737.793,-1000.000,-688.965,-989.746,0.000,0
1634634707.657,-373.047,-730.469,49.316,-983.398,0.000,0
1634634707.661,-949.707,670.898,-56.152,-180.176,0.000,0
1634634707.664,938.477,-845.703,-652.344,-1000.000,0.000,0
1634634707.668,-971.680,489.746,-780.762,-253.906,0.000,0
1634634707.672,-443.359,-931.152,-656.250,965.332,0.000,0
1634634707.676,-559.570,-992.188,3.418,-931.152,0.000,0
1634634707.680,-998.047,376.465,-15.137,23.926,0.000,0
1634634707.684,933.105,-851.074,-588.867,-1000.000,0.000,0
1634634707.688,-900.879,696.777,-836.914,-443.359,0.000,0
1634634707.691,-203.613,-652.344,-709.473,875.000,0.000,0
1634634707.696,-725.098,-1000.000,-238.281,-880.859,0.000,0
1634634707.700,903.809,128.418,15.137,208.984,0.000,0
1634634707.704,958.984,-905.273,-472.168,-1000.000,0.000,0
1634634707.708,-906.738,914.062,-881.836,-645.508,0.000,0
1634634707.711,49.316,-314.941,-684.082,752.441,0.000,0
1634634707.715,-959.961,-1000.000,-389.160,-846.680,0.000,0
1634634707.719,573.730,-50.293,154.785,176.758,0.000,0
1634634707.723,-976.074,-968.262,-244.629,-1000.000,0.000,0
1634634707.727,-938.965,-968.262,-899.902,-880.859,0.000,0
1634634707.731,215.332,-66.895,-719.727,452.637,0.000,0
1634634707.735,-1000.000,-1000.000,-494.141,-794.434,0.000,0
1634634707.738,204.590,-173.340,201.660,147.461,0.000,0
1634634707.743,-932.129,990.723,-197.754,-1000.000,0.000,0
1634634707.746,-952.148,-920.898,-832.031,-1000.000,0.000,0
1634634707.750,231.445,110.352,-729.004,142.578,0.000,0
1634634707.754,-1000.000,-1000.000,-566.895,-765.137,0.000,0
1634634707.758,5.371,-187.500,305.664,309.082,0.000,0
1634634707.762,-957.520,994.141,-130.859,-961.914,0.000,0
1634634707.766,-943.848,-917.969,-796.875,-1000.000,0.000,0
1634634707.770,337.402,226.074,-793.945,-50.293,0.000,0
1634634707.773,-1000.000,-1000.000,-616.211,-802.734,0.000,0
1634634707.777,-207.031,-256.348,429.688,479.004,0.000,0
1634634707.781,998.047,984.863,-64.941,-866.699,0.000,0
1634634707.785,-929.688,-920.410,-819.336,-1000.000,0.000,0
1634634707.790,511.230,229.980,-782.715,-231.934,0.000,0
1634634707.793,-1000.000,-1000.000,-620.117,-890.625,0.000,0
1634634707.797,-240.723,-434.570,225.586,686.523,0.000,0
1634634707.801,-979.004,902.832,-163.086,-704.102,0.000,0
1634634707.805,-971.191,-890.625,-745.117,-1000.000,0.000,0
1634634707.809,720.215,285.156,-729.004,-197.754,0.000,0
1634634707.813,-815.430,-1000.000,-672.363,-958.984,0.000,0
1634634707.816,-205.078,-621.582,82.520,924.316,0.000,0
1634634707.820,-950.195,771.973,-74.219,-367.676,0.000,0
1634634707.824,943.359,-859.863,-664.551,-1000.000,0.000,0
1634634707.828,988.281,437.012,-775.879,-172.852,0.000,0
1634634707.832,-533.691,-993.164,-709.473,-999.512,0.000,0
1634634707.836,-539.062,-900.391,-24.414,-961.426,0.000,0
1634634707.840,-990.234,483.887,-5.859,-73.730,0.000,0
1634634707.844,929.688,-840.820,-610.840,-1000.000,0.000,0
1634634707.848,-903.809,604.980,-837.402,-367.676,0.000,0
1634634707.852,-226.074,-774.902,-702.148,914.062,0.000,0
1634634707.856,-728.027,-1000.000,-94.238,-900.879,0.000,0
1634634707.859,906.250,193.848,71.289,117.188,0.000,0
1634634707.863,958.008,-876.953,-531.738,-1000.000,0.000,0
1634634707.867,-903.809,833.984,-833.984,-565.918,0.000,0
1634634707.871,40.039,-447.754,-635.254,814.453,0.000,0
1634634707.875,-932.129,-1000.000,-334.473,-858.398,0.000,0
1634634707.879,610.840,26.855,40.039,184.082,0.000,0
1634634707.883,-983.887,-947.754,-380.859,-1000.000,0.000,0
1634634707.887,-930.176,-993.652,-887.207,-845.215,0.000,0
1634634707.891,196.777,-125.977,-723.145,507.324,0.000,0
1634634707.895,-1000.000,-1000.000,-465.820,-800.781,0.000,0
1634634707.899,307.129,-165.039,190.918,148.926,0.000,0
1634634707.902,-940.918,994.141,-212.891,-1000.000,0.000,0
1634634707.906,-947.266,-928.711,-861.328,-1000.000,0.000,0
1634634707.910,222.656,55.664,-749.512,168.457,0.000,0
1634634707.914,-1000.000,-1000.000,-495.605,-764.648,0.000,0
1634634707.918,102.539,-180.664,326.172,237.793,0.000,0
1634634707.922,-938.477,990.234,-178.223,-996.094,0.000,0
1634634707.926,-950.684,-914.062,-812.012,-1000.000,0.000,0
1634634707.930,235.840,223.145,-752.441,-28.320,0.000,0
1634634707.934,-1000.000,-1000.000,-590.332,-791.504,0.000,0
1634634707.938,-92.773,-203.613,313.965,432.617,0.000,0
1634634707.942,-980.957,-997.070,-160.156,-899.902,0.000,0
1634634707.945,-934.570,-926.270,-791.992,-1000.000,0.000,0
1634634707.949,426.270,231.934,-778.809,-178.711,0.000,0
1634634707.953,-1000.000,-1000.000,-619.141,-871.582,0.000,0
1634634707.957,-222.168,-374.023,345.215,666.504,0.000,0
1634634707.961,-994.141,937.988,-87.891,-712.891,0.000,0
1634634707.965,-943.359,-903.320,-785.156,-1000.000,0.000,0
1634634707.968,599.609,226.562,-760.742,-205.078,0.000,0
1634634707.972,-1000.000,-1000.000,-648.438,-941.406,0.000,0
1634634707.977,-261.230,-541.992,129.395,866.699,0.000,0
1634634707.981,-958.496,833.008,-129.395,-455.566,0.000,0
1634634707.984,980.957,-869.141,-709.473,-1000.000,0.000,0
1634634707.988,870.117,373.047,-757.812,-179.199,0.000,0
1634634707.992,-709.961,-1000.000,-686.035,-990.723,0.000,0
1634634707.996,-420.898,-807.129,20.508,-978.516,0.000,0
1634634708.000,-956.055,581.055,-26.855,-157.715,0.000,0
1634634708.004,924.805,-834.961,-607.910,-1000.000,0.000,0
1634634708.008,-922.363,516.113,-803.711,-271.484,0.000,0
1634634708.011,-341.309,-891.113,-723.145,961.426,0.000,0
1634634708.015,-645.996,-1000.000,-83.496,-929.199,0.000,0
1634634708.019,964.355,283.203,47.852,22.949,0.000,0
1634634708.023,942.383,-857.910,-552.734,-1000.000,0.000,0
1634634708.027,-900.879,747.070,-881.836,-465.332,0.000,0
1634634708.031,-89.355,-581.055,-685.059,863.770,0.000,0
1634634708.035,-854.492,-1000.000,-227.051,-876.465,0.000,0
1634634708.039,750.488,84.473,18.555,202.148,0.000,0
1634634708.043,988.281,-924.805,-464.844,-1000.000,0.000,0
1634634708.047,-919.434,960.449,-842.773,-719.727,0.000,0
1634634708.050,184.082,-230.957,-633.301,670.898,0.000,0
1634634708.054,-1000.000,-1000.000,-447.754,-828.613,0.000,0
1634634708.058,386.230,-94.727,117.676,164.551,0.000,0
1634634708.062,-946.289,-982.910,-242.188,-1000.000,0.000,0
1634634708.066,-949.219,-951.172,-875.977,-957.520,0.000,0
1634634708.070,225.098,-16.602,-733.887,334.473,0.000,0
1634634708.074,-1000.000,-1000.000,-515.625,-778.320,0.000,0
1634634708.078,102.539,-174.805,251.953,140.137,0.000,2
1634634708.082,-938.477,988.770,-180.664,-1000.000,0.000,0
1634634708.086,-949.219,-916.504,-837.402,-1000.000,0.000,0
1634634708.090,233.887,175.293,-782.227,40.039,0.000,0
1634634708.094,-1000.000,-1000.000,-504.395,-771.973,0.000,0
1634634708.097,-73.730,-196.777,439.453,334.473,0.000,0
1634634708.101,-976.562,999.512,-153.809,-947.266,0.000,0
1634634708.105,-936.035,-921.875,-808.594,-1000.000,0.000,0
1634634708.109,404.297,229.004,-771.484,-150.879,0.000,0
1634634708.113,-1000.000,-1000.000,-630.371,-828.125,0.000,0
1634634708.117,-219.238,-297.363,306.641,532.715,0.000,0
1634634708.121,-998.047,969.238,-119.141,-848.145,0.000,0
1634634708.125,-928.711,-908.203,-772.461,-1000.000,0.000,0
1634634708.129,524.414,208.984,-778.320,-217.285,0.000,0
1634634708.132,-1000.000,-1000.000,-644.531,-925.293,0.000,0
1634634708.136,-159.180,-388.672,259.277,811.523,0.000,0
1634634708.140,-985.352,865.723,-75.684,-540.527,0.000,0
1634634708.144,-978.516,-881.836,-742.188,-1000.000,0.000,0
1634634708.148,740.723,333.984,-768.555,-180.664,0.000,0
1634634708.152,-871.582,-1000.000,-631.836,-990.234,0.000,0
1634634708.155,-292.969,-703.125,113.770,-980.957,0.000,0
1634634708.159,-939.453,696.289,-85.938,-182.129,0.000,0
1634634708.164,943.359,-848.145,-664.551,-1000.000,0.000,0
1634634708.168,986.328,471.680,-775.391,-215.332,0.000,0
1634634708.172,-533.691,-949.707,-706.543,978.516,0.000,0
1634634708.175,-539.551,-969.727,-65.430,-935.547,0.000,0
1634634708.179,-990.234,397.949,0.977,25.879,0.000,0
1634634708.183,929.688,-842.773,-583.496,-1000.000,0.000,0
1634634708.187,-903.809,653.320,-837.891,-393.555,0.000,0
1634634708.191,-226.562,-709.473,-704.102,905.273,0.000,0
1634634708.195,-728.027,-1000.000,-166.016,-893.555,0.000,0
1634634708.199,906.250,140.137,93.262,184.570,0.000,0
1634634708.202,957.520,-892.578,-488.281,-1000.000,0.000,0
1634634708.206,-906.250,876.953,-906.738,-576.172,0.000,0
1634634708.211,49.316,-380.371,-675.781,819.824,0.000,0
1634634708.215,-959.961,-1000.000,-330.078,-859.863,0.000,0
1634634708.218,574.219,-28.809,62.500,184.082,0.000,0
1634634708.222,-976.074,-962.402,-343.262,-1000.000,0.000,0
1634634708.226,-938.965,-976.562,-871.094,-845.215,0.000,0
1634634708.230,215.332,-91.309,-691.895,507.324,0.000,0
1634634708.234,-1000.000,-1000.000,-474.121,-800.293,0.000,0
1634634708.238,204.102,-171.875,204.590,147.461,0.000,0
1634634708.242,-932.129,990.723,-163.574,-1000.000,0.000,0
1634634708.245,-952.148,-922.363,-818.848,-1000.000,0.000,0
1634634708.249,231.445,96.191,-756.836,145.508,0.000,0
1634634708.253,-1000.000,-1000.000,-542.480,-762.695,0.000,0
1634634708.258,5.371,-186.035,324.219,235.840,0.000,0
1634634708.261,-957.520,993.164,-150.879,-993.164,0.000,0
1634634708.265,-943.848,-916.016,-817.383,-1000.000,0.000,0
1634634708.269,337.402,224.609,-796.875,-56.152,0.000,0
1634634708.273,-1000.000,-1000.000,-558.105,-794.922,0.000,0
1634634708.277,-207.031,-229.492,387.207,432.129,0.000,0
1634634708.281,998.047,994.141,-141.113,-896.973,0.000,0
1634634708.285,-930.176,-923.828,-794.922,-1000.000,0.000,0
1634634708.288,511.230,230.957,-685.059,-235.352,0.000,0
1634634708.292,-1000.000,-1000.000,-523.926,-889.648,0.000,0
1634634708.296,-240.723,-409.180,239.258,686.523,0.000,0
1634634708.300,-977.051,917.480,-124.023,-704.102,0.000,0
1634634708.304,-978.027,-895.996,-736.816,-1000.000,0.000,0
1634634708.308,738.770,272.461,-749.512,-197.754,0.000,0
1634634708.312,-871.582,-1000.000,-700.684,-958.984,0.000,0
1634634708.316,-292.480,-582.031,90.332,923.828,0.000,0
1634634708.320,-942.871,812.500,-71.777,-367.676,0.000,0
1634634708.324,954.102,-866.211,-692.383,-1000.000,0.000,0
1634634708.327,955.566,422.363,-779.297,-173.340,0.000,0
1634634708.331,-579.590,-1000.000,-654.297,-999.512,0.000,0
1634634708.335,-486.328,-871.094,46.875,-960.449,0.000,0
1634634708.339,-991.211,515.625,-39.551,-74.219,0.000,0
1634634708.343,968.750,-831.543,-638.672,-1000.000,0.000,0
1634634708.347,979.004,556.641,-785.645,-354.492,0.000,0
1634634708.351,-480.469,-842.773,-649.902,919.434,0.000,0
