timestamps,TP9,AF7,AF8,TP10,Right AUX, Marker
1638713731.323,-116.699,-62.500,-81.055,-218.750,0.000,0
1638713731.327,84.473,-54.688,-77.148,-114.258,0.000,0
1638713731.331,89.355,-49.805,-81.055,-119.629,0.000,0
1638713731.335,-121.582,-53.223,-82.520,-230.469,0.000,0
1638713731.339,-245.605,-55.664,-77.148,-282.227,0.000,0
1638713731.343,-119.629,-67.871,-81.055,-203.613,0.000,0
1638713731.347,90.820,-74.707,-85.938,-104.004,0.000,0
1638713731.351,103.516,-66.895,-86.914,-99.121,0.000,0
1638713731.355,-108.398,-62.012,-85.449,-203.125,0.000,0
1638713731.359,-259.766,-55.664,-84.473,-292.480,0.000,0
1638713731.363,-153.809,-51.758,-80.566,-241.211,0.000,0
1638713731.367,97.168,-67.871,-54.199,-79.590,0.000,0
1638713731.377,126.953,-71.777,-74.219,-69.824,0.000,0
1638713731.381,-97.168,-56.152,-97.168,-212.402,0.000,0
1638713731.385,-248.535,-50.781,-78.125,-287.109,0.000,0
1638713731.389,-177.246,-51.758,-74.707,-244.629,0.000,0
1638713731.394,58.594,-38.086,-71.777,-128.418,0.000,0
1638713731.398,146.973,-31.250,-61.035,-79.590,0.000,0
1638713731.402,-21.973,-39.062,-53.223,-151.855,0.000,0
1638713731.406,-207.031,-39.062,-60.059,-259.766,0.000,0
1638713731.411,-172.363,-26.367,-57.129,-247.070,0.000,0
1638713731.415,64.453,-13.184,-39.062,-111.328,0.000,0
1638713731.419,177.246,-8.789,-41.992,-48.828,0.000,0
1638713731.423,43.945,6.348,-33.691,-115.723,0.000,0
1638713731.438,-158.203,3.418,-25.879,-217.285,0.000,0
1638713731.443,-167.480,-5.371,-25.391,-216.797,0.000,0
1638713731.448,49.805,1.953,-23.438,-100.586,0.000,0
1638713731.452,172.363,-2.441,-43.945,-44.434,0.000,0
1638713731.457,36.133,-13.672,-59.570,-121.582,0.000,0
1638713731.461,-164.062,-15.625,-48.828,-222.656,0.000,0
1638713731.466,-187.012,-20.020,-50.781,-234.863,0.000,0
1638713731.470,-12.207,-34.180,-75.684,-157.715,0.000,0
1638713731.475,135.742,-41.992,-80.566,-80.078,0.000,0
1638713731.479,43.457,-37.109,-71.777,-119.629,0.000,0
1638713731.484,-169.922,-34.668,-68.848,-227.539,0.000,0
1638713731.488,-219.727,-35.645,-65.430,-258.301,0.000,0
1638713731.507,-25.879,-34.668,-60.547,-166.504,0.000,0
1638713731.512,143.555,-34.668,-67.871,-76.660,0.000,0
1638713731.516,54.688,-35.645,-71.777,-122.559,0.000,0
1638713731.521,-162.598,-40.527,-69.336,-229.980,0.000,0
1638713731.526,-232.422,-45.898,-70.312,-266.602,0.000,0
1638713731.531,-72.754,-56.152,-67.383,-189.453,0.000,0
1638713731.536,115.723,-53.223,-67.871,-85.938,0.000,0
1638713731.541,91.797,-51.270,-71.777,-95.703,0.000,0
1638713731.545,-134.766,-52.734,-81.055,-219.238,0.000,0
1638713731.550,-250.000,-49.316,-76.172,-274.414,0.000,0
1638713731.555,-93.262,-50.293,-62.500,-194.824,0.000,0
1638713731.560,108.887,-44.922,-61.523,-91.309,0.000,0
1638713731.579,95.215,-38.086,-77.637,-93.262,0.000,0
1638713731.584,-80.566,-43.945,-57.129,-173.828,0.000,0
1638713731.589,-222.168,-68.848,-56.152,-249.023,0.000,0
1638713731.594,-147.461,-73.242,-91.797,-231.445,0.000,0
1638713731.599,75.195,-58.594,-85.938,-124.512,0.000,0
1638713731.604,102.539,-51.270,-77.148,-86.426,0.000,0
1638713731.610,-99.609,-49.316,-73.242,-180.176,0.000,0
1638713731.615,-253.906,-52.734,-74.707,-284.180,0.000,0
1638713731.620,-158.691,-46.387,-69.824,-234.375,0.000,0
1638713731.625,53.223,-40.039,-72.266,-120.117,0.000,0
1638713731.630,109.375,-42.969,-82.031,-89.844,0.000,0
1638713731.635,-70.801,-48.828,-86.426,-177.734,0.000,0
1638713731.655,-243.164,-50.781,-80.078,-270.508,0.000,0
1638713731.660,-175.293,-43.457,-72.266,-241.699,0.000,0
1638713731.665,33.691,-42.969,-76.172,-130.371,0.000,0
1638713731.670,115.723,-48.340,-84.961,-87.402,0.000,0
1638713731.676,-37.109,-48.340,-75.684,-166.504,0.000,0
1638713731.681,-212.402,-52.734,-62.500,-260.254,0.000,0
1638713731.686,-183.105,-56.152,-70.312,-249.512,0.000,0
1638713731.691,6.348,-49.316,-78.125,-140.625,0.000,0
1638713731.697,129.395,-35.645,-65.918,-62.500,0.000,0
1638713731.702,5.859,-40.039,-62.012,-126.953,0.000,0
1638713731.707,-217.285,-48.828,-86.426,-265.137,0.000,0
1638713731.713,-219.238,-40.039,-84.473,-270.020,0.000,0
1638713731.731,-18.555,-32.715,-67.383,-152.832,0.000,0
1638713731.737,121.094,-26.855,-63.965,-71.289,0.000,0
1638713731.742,21.973,-25.391,-66.406,-117.676,0.000,0
1638713731.748,-184.082,-24.414,-60.547,-230.469,0.000,0
1638713731.753,-202.637,-23.926,-63.477,-238.770,0.000,0
1638713731.759,-11.719,-26.855,-71.777,-139.648,0.000,0
1638713731.764,121.094,-27.832,-76.660,-75.195,0.000,0
1638713731.770,32.227,-26.367,-74.707,-116.699,0.000,0
1638713731.775,-163.086,-23.438,-69.824,-214.844,0.000,0
1638713731.780,-204.590,-20.996,-57.617,-236.816,0.000,0
1638713731.786,-47.363,-21.973,-60.059,-152.344,0.000,0
1638713731.791,109.375,-15.625,-68.359,-63.965,0.000,0
1638713731.801,68.359,-9.277,-63.477,-87.891,0.000,0
1638713731.807,-131.348,-14.160,-54.199,-200.195,0.000,0
1638713731.812,-227.051,-14.648,-44.922,-234.375,0.000,0
1638713731.818,-72.266,-12.695,-46.875,-150.879,0.000,0
1638713731.823,147.461,-20.020,-34.668,-32.227,0.000,0
1638713731.829,101.562,-24.414,-49.805,-58.594,0.000,0
1638713731.834,-114.746,-20.508,-64.453,-203.125,0.000,0
1638713731.840,-220.215,-20.020,-61.523,-274.414,0.000,0
1638713731.845,-110.840,-20.996,-70.312,-213.379,0.000,0
1638713731.851,107.910,-12.207,-62.500,-81.055,0.000,0
1638713731.856,132.324,-0.977,-56.152,-62.500,0.000,0
1638713731.862,-76.660,-4.395,-62.988,-182.617,0.000,0
1638713731.864,-221.191,-8.301,-56.641,-246.094,0.000,1
1638713731.870,-112.793,-5.371,-53.711,-191.895,0.000,0
1638713731.875,85.449,-9.277,-65.918,-102.051,0.000,0
1638713731.881,117.188,-10.742,-65.430,-70.801,0.000,0
1638713731.886,-76.660,-15.137,-65.918,-167.480,0.000,0
1638713731.892,-229.004,-13.672,-59.570,-244.141,0.000,0
1638713731.897,-160.156,-10.742,-62.988,-201.660,0.000,0
1638713731.903,31.738,-10.742,-72.266,-114.258,0.000,0
1638713731.908,105.957,-14.648,-74.219,-77.148,0.000,0
1638713731.914,-58.105,-17.578,-67.383,-158.203,0.000,0
1638713731.919,-228.516,-19.043,-63.965,-258.789,0.000,0
1638713731.925,-152.832,-27.344,-42.969,-198.242,0.000,0
1638713731.923,34.668,-37.598,-53.711,-96.680,0.000,0
1638713731.929,103.516,-29.785,-84.961,-84.961,0.000,0
1638713731.934,-41.504,-25.391,-70.312,-154.785,0.000,0
1638713731.939,-237.305,-39.062,-64.941,-256.836,0.000,0
1638713731.945,-199.219,-45.410,-68.848,-240.234,0.000,0
1638713731.950,24.414,-39.551,-69.336,-135.254,0.000,0
1638713731.956,141.113,-37.109,-70.801,-71.777,0.000,0
1638713731.961,-11.230,-42.480,-76.172,-142.090,0.000,0
1638713731.966,-225.586,-50.293,-79.102,-268.066,0.000,0
1638713731.972,-232.422,-47.852,-80.078,-271.484,0.000,0
1638713731.977,-28.809,-42.969,-72.754,-162.109,0.000,0
1638713731.983,124.023,-41.992,-66.895,-82.520,0.000,0
1638713731.976,24.414,-36.621,-65.918,-123.535,0.000,0
1638713731.982,-195.801,-37.109,-63.477,-245.117,0.000,0
1638713731.987,-233.887,-44.922,-67.383,-279.297,0.000,0
1638713731.992,-53.711,-49.805,-78.613,-182.617,0.000,0
1638713731.998,100.586,-42.969,-79.590,-93.750,0.000,0
1638713732.003,43.457,-41.992,-65.430,-120.605,0.000,0
1638713732.008,-146.484,-51.270,-46.387,-207.031,0.000,0
1638713732.014,-241.211,-43.457,-60.059,-266.602,0.000,0
1638713732.019,-96.191,-36.621,-76.172,-213.379,0.000,0
1638713732.024,98.633,-51.270,-74.219,-109.375,0.000,0
1638713732.030,56.641,-55.664,-81.543,-118.164,0.000,0
1638713732.035,-141.602,-50.293,-77.637,-224.121,0.000,0
1638713732.025,-228.516,-47.852,-70.312,-283.203,0.000,0
1638713732.030,-83.496,-39.062,-63.965,-195.801,0.000,0
1638713732.035,109.375,-43.457,-70.801,-93.750,0.000,0
1638713732.040,99.121,-44.922,-71.777,-115.234,0.000,0
1638713732.045,-103.516,-48.340,-63.477,-216.797,0.000,0
1638713732.051,-226.562,-59.570,-65.430,-276.855,0.000,0
1638713732.056,-104.004,-51.270,-67.383,-222.168,0.000,0
1638713732.061,109.375,-45.410,-71.289,-106.934,0.000,0
1638713732.066,108.887,-43.457,-75.195,-95.215,0.000,0
1638713732.071,-85.938,-38.574,-72.266,-208.008,0.000,0
1638713732.077,-216.309,-46.875,-79.102,-290.039,0.000,0
1638713732.082,-120.605,-41.504,-76.660,-240.723,0.000,0
1638713732.069,96.191,-19.531,-70.312,-127.930,0.000,0
1638713732.074,166.504,-12.695,-47.363,-78.613,0.000,0
1638713732.079,-10.742,-28.809,-38.086,-158.691,0.000,0
1638713732.084,-223.145,-42.969,-85.449,-299.316,0.000,0
1638713732.089,-147.949,-30.762,-87.402,-272.461,0.000,0
1638713732.094,87.402,-28.809,-64.941,-129.395,0.000,0
1638713732.099,151.855,-36.133,-74.707,-99.121,0.000,0
1638713732.104,-37.598,-41.016,-84.473,-207.031,0.000,0
1638713732.109,-217.773,-43.457,-76.172,-288.574,0.000,0
1638713732.114,-165.039,-46.875,-72.266,-257.324,0.000,0
1638713732.119,58.105,-44.922,-68.359,-142.578,0.000,0
1638713732.125,143.555,-42.969,-71.289,-97.656,0.000,0
1638713732.110,-16.602,-44.922,-72.266,-179.199,0.000,0
1638713732.115,-194.336,-46.875,-64.941,-268.066,0.000,0
1638713732.120,-194.336,-46.875,-74.219,-275.879,0.000,0
1638713732.125,17.578,-42.969,-81.055,-178.223,0.000,0
1638713732.130,148.926,-43.945,-75.195,-100.586,0.000,0
1638713732.135,33.203,-52.734,-71.289,-149.414,0.000,0
1638713732.140,-180.176,-53.711,-77.637,-266.113,0.000,0
1638713732.145,-224.121,-56.152,-87.891,-294.922,0.000,0
1638713732.150,-15.625,-53.711,-79.102,-176.758,0.000,0
1638713732.155,140.137,-54.199,-70.801,-83.496,0.000,0
1638713732.160,18.555,-62.988,-101.562,-164.551,0.000,0
1638713732.165,-198.730,-51.758,-107.422,-294.922,0.000,0
1638713732.149,-217.773,-33.691,-72.266,-286.621,0.000,0
1638713732.154,-19.043,-41.504,-64.941,-168.457,0.000,0
1638713732.159,112.305,-47.363,-93.750,-119.141,0.000,0
1638713732.163,48.340,-33.691,-86.426,-155.762,0.000,0
1638713732.168,-135.742,-40.039,-63.965,-234.863,0.000,0
1638713732.173,-215.332,-53.223,-68.848,-268.066,0.000,0
1638713732.178,-81.055,-53.223,-103.516,-217.285,0.000,0
1638713732.183,113.281,-37.598,-102.051,-125.488,0.000,0
1638713732.188,92.773,-37.598,-71.289,-106.934,0.000,0
1638713732.192,-142.578,-47.363,-78.125,-216.797,0.000,0
1638713732.197,-246.582,-37.598,-87.891,-297.852,0.000,0
1638713732.202,-84.961,-34.180,-80.566,-224.609,0.000,0
1638713732.184,135.254,-40.527,-58.105,-79.590,0.000,0
1638713732.189,111.816,-39.062,-61.035,-87.402,0.000,0
1638713732.194,-131.348,-31.250,-86.914,-239.746,0.000,0
1638713732.198,-238.281,-33.203,-76.172,-301.270,0.000,0
1638713732.203,-84.961,-52.734,-57.129,-201.172,0.000,0
1638713732.208,105.469,-55.664,-77.148,-102.051,0.000,0
1638713732.213,93.750,-46.387,-92.285,-124.023,0.000,0
1638713732.217,-86.914,-50.781,-68.359,-205.566,0.000,0
1638713732.222,-208.984,-49.805,-57.129,-274.414,0.000,0
1638713732.227,-146.484,-46.875,-83.984,-265.137,0.000,0
1638713732.232,37.598,-42.969,-98.633,-169.434,0.000,0
1638713732.236,133.301,-35.156,-64.941,-108.887,0.000,0
1638713732.217,-21.973,-37.109,-50.293,-184.082,0.000,0
1638713732.222,-237.793,-45.410,-81.543,-312.012,0.000,0
1638713732.227,-182.129,-37.598,-82.031,-289.062,0.000,0
1638713732.231,69.824,-29.297,-49.316,-132.324,0.000,0
1638713732.236,138.672,-42.969,-62.012,-95.703,0.000,0
1638713732.240,-51.758,-45.410,-89.355,-219.238,0.000,0
1638713732.245,-233.398,-37.598,-79.102,-324.219,0.000,0
1638713732.250,-173.828,-41.016,-62.988,-280.762,0.000,0
1638713732.254,41.016,-53.223,-74.219,-168.457,0.000,0
1638713732.259,134.766,-46.875,-90.820,-139.648,0.000,0
1638713732.263,-4.395,-30.762,-63.477,-194.824,0.000,0
1638713732.268,-196.289,-40.039,-43.945,-276.855,0.000,0
1638713732.251,-194.336,-62.012,-72.266,-285.645,0.000,0
1638713732.256,-19.531,-59.082,-107.910,-213.867,0.000,0
1638713732.260,125.000,-37.109,-87.402,-130.371,0.000,0
1638713732.265,25.879,-39.062,-64.941,-168.945,0.000,0
1638713732.269,-195.312,-45.898,-72.754,-282.715,0.000,0
1638713732.274,-232.422,-44.922,-76.172,-306.641,0.000,0
1638713732.278,-24.902,-49.805,-63.965,-199.219,0.000,0
1638713732.283,135.254,-50.781,-68.848,-104.492,0.000,0
1638713732.287,20.020,-50.293,-95.703,-170.898,0.000,0
1638713732.292,-194.824,-40.527,-94.238,-292.969,0.000,0
1638713732.296,-233.887,-36.133,-73.730,-309.082,0.000,0
1638713732.301,-50.781,-40.527,-81.543,-219.238,0.000,0
1638713732.287,126.465,-39.062,-91.797,-126.465,0.000,0
1638713732.291,71.289,-40.527,-77.637,-145.996,0.000,0
1638713732.296,-160.645,-42.480,-74.707,-267.578,0.000,0
1638713732.300,-260.742,-43.945,-82.520,-323.730,0.000,0
1638713732.305,-86.426,-42.480,-83.984,-230.957,0.000,0
1638713732.309,112.305,-41.016,-79.102,-108.887,0.000,0
1638713732.313,91.309,-38.574,-63.965,-93.750,0.000,0
1638713732.318,-126.953,-42.969,-74.707,-221.680,0.000,0
1638713732.322,-268.066,-43.945,-104.004,-328.613,0.000,0
1638713732.327,-103.027,-26.855,-89.844,-231.445,0.000,0
1638713732.331,114.746,-20.508,-76.660,-106.445,0.000,0
1638713732.336,99.609,-33.691,-90.820,-122.559,0.000,0
1638713732.322,-101.562,-42.480,-96.191,-236.816,0.000,0
1638713732.326,-229.492,-31.250,-75.684,-296.875,0.000,0
1638713732.330,-120.605,-26.855,-74.707,-237.793,0.000,0
1638713732.335,86.914,-26.855,-82.031,-135.254,0.000,0
1638713732.339,120.605,-29.297,-67.871,-103.516,0.000,0
1638713732.344,-74.219,-38.086,-67.871,-201.172,0.000,0
1638713732.348,-233.887,-41.016,-74.707,-283.203,0.000,0
1638713732.352,-162.109,-41.016,-87.402,-254.395,0.000,0
1638713732.357,53.223,-36.133,-90.332,-158.691,0.000,0
1638713732.361,125.488,-35.156,-73.242,-109.863,0.000,0
1638713732.365,-45.898,-39.062,-72.266,-187.988,0.000,0
1638713732.370,-237.305,-33.203,-88.867,-311.035,0.000,0
1638713732.359,-184.570,-21.484,-85.449,-290.039,0.000,0
1638713732.363,40.527,-27.832,-75.684,-148.438,0.000,0
1638713732.367,125.488,-38.086,-75.684,-104.492,0.000,0
1638713732.372,-35.156,-39.062,-79.590,-204.590,0.000,0
1638713732.376,-217.285,-37.598,-76.172,-295.410,0.000,0
1638713732.380,-184.570,-42.480,-70.801,-271.484,0.000,0
1638713732.385,19.531,-44.434,-74.219,-171.387,0.000,0
1638713732.389,130.859,-34.180,-77.637,-126.465,0.000,0
1638713732.393,-5.859,-28.809,-76.660,-199.707,0.000,0
1638713732.397,-193.359,-40.039,-61.035,-281.250,0.000,0
1638713732.402,-208.008,-47.363,-79.590,-299.805,0.000,0
1638713732.406,-12.207,-42.480,-91.309,-224.121,0.000,0
1638713732.396,147.949,-41.992,-74.707,-139.160,0.000,0
1638713732.401,17.578,-39.062,-84.473,-191.406,0.000,0
1638713732.405,-201.660,-42.480,-85.449,-305.664,0.000,0
1638713732.409,-226.074,-50.293,-76.172,-331.543,0.000,0
1638713732.413,-26.855,-41.992,-72.266,-222.656,0.000,0
1638713732.418,144.531,-29.785,-68.359,-134.766,0.000,0
1638713732.422,56.641,-25.879,-59.570,-185.547,0.000,0
1638713732.426,-164.551,-33.203,-60.059,-296.875,0.000,0
1638713732.430,-219.727,-36.133,-66.895,-322.266,0.000,0
1638713732.435,-42.969,-40.527,-67.383,-229.980,0.000,0
1638713732.439,104.980,-44.922,-86.914,-162.109,0.000,0
1638713732.443,46.387,-35.156,-81.543,-193.359,0.000,0
1638713732.434,-150.391,-32.715,-62.012,-282.715,0.000,0
1638713732.438,-248.047,-40.527,-70.312,-336.914,0.000,0
1638713732.443,-105.469,-43.457,-83.984,-283.203,0.000,0
1638713732.447,103.027,-36.133,-74.707,-175.781,0.000,0
1638713732.451,94.238,-38.574,-64.941,-171.875,0.000,0
1638713732.455,-126.465,-47.363,-67.383,-288.574,0.000,0
1638713732.459,-247.070,-48.828,-71.289,-350.586,0.000,0
1638713732.464,-111.328,-41.992,-77.637,-283.691,0.000,0
1638713732.468,115.234,-46.387,-60.547,-153.809,0.000,0
1638713732.472,117.188,-59.570,-64.453,-134.277,0.000,0
1638713732.476,-118.652,-51.270,-96.191,-285.156,0.000,0
1638713732.480,-240.234,-42.480,-70.801,-345.215,0.000,0
1638713732.473,-111.816,-39.551,-49.316,-256.836,0.000,0
1638713732.477,86.426,-39.062,-76.172,-173.828,0.000,0
1638713732.481,103.027,-41.016,-90.332,-162.598,0.000,0
1638713732.485,-75.195,-44.434,-74.707,-248.535,0.000,0
1638713732.489,-206.543,-51.270,-67.383,-340.820,0.000,0
1638713732.493,-134.277,-55.664,-72.754,-291.016,0.000,0
1638713732.498,65.918,-46.875,-76.660,-175.781,0.000,0
1638713732.502,141.113,-41.992,-59.082,-125.488,0.000,0
1638713732.506,-44.434,-51.758,-63.965,-221.191,0.000,0
1638713732.510,-232.910,-43.945,-79.590,-339.355,0.000,0
1638713732.514,-183.105,-36.133,-76.660,-311.035,0.000,0
1638713732.518,40.527,-43.945,-74.707,-188.477,0.000,0
1638713732.511,133.301,-53.711,-77.637,-141.113,0.000,0
1638713732.516,-32.715,-55.664,-89.355,-231.445,0.000,0
1638713732.520,-221.191,-48.828,-81.055,-335.449,0.000,0
1638713732.524,-174.316,-48.340,-52.734,-309.082,0.000,0
1638713732.528,35.645,-50.293,-53.223,-193.359,0.000,0
1638713732.532,123.047,-48.828,-75.684,-153.320,0.000,0
1638713732.536,0.488,-46.387,-74.219,-223.633,0.000,0
1638713732.540,-186.035,-50.293,-59.570,-314.941,0.000,0
1638713732.544,-213.379,-61.035,-69.824,-353.516,0.000,0
1638713732.549,-28.320,-55.664,-99.609,-305.176,0.000,0
1638713732.553,122.070,-44.434,-89.355,-228.027,0.000,0
1638713732.557,9.277,-49.805,-81.055,-290.527,0.000,0
1638713732.551,-199.707,-48.828,-83.984,-420.898,0.000,0
1638713732.555,-238.770,-39.062,-80.078,-462.402,0.000,0
1638713732.559,-44.434,-38.086,-73.730,-364.258,0.000,0
1638713732.563,124.023,-42.969,-81.055,-281.250,0.000,0
1638713732.567,26.855,-58.594,-90.820,-347.656,0.000,0
1638713732.571,-178.223,-62.012,-71.289,-455.078,0.000,0
1638713732.575,-219.727,-42.969,-57.617,-472.168,0.000,0
1638713732.579,-46.387,-36.621,-69.824,-388.672,0.000,0
1638713732.583,107.422,-45.898,-95.703,-336.426,0.000,0
1638713732.587,60.059,-41.016,-82.520,-372.070,0.000,0
1638713732.592,-137.695,-41.016,-58.105,-458.984,0.000,0
1638713732.596,-247.070,-52.246,-72.754,-527.344,0.000,0
1638713732.590,-99.121,-46.387,-84.473,-482.422,0.000,0
1638713732.594,97.168,-34.668,-73.242,-373.535,0.000,0
1638713732.598,86.914,-38.086,-63.477,-370.117,0.000,0
1638713732.602,-118.164,-41.016,-61.035,-493.652,0.000,0
1638713732.606,-225.586,-30.762,-60.059,-581.543,0.000,0
1638713732.611,-101.074,-34.180,-61.035,-645.020,0.000,0
1638713732.615,106.934,-45.898,-52.734,-719.727,0.000,0
1638713732.619,115.234,-42.480,-61.035,-881.348,0.000,0
1638713732.623,-107.910,-33.203,-81.055,-1000.000,0.000,0
1638713732.627,-244.141,-35.156,-73.242,-996.094,0.000,0
1638713732.631,-142.578,-41.504,-72.754,-999.023,0.000,0
1638713732.635,58.105,-41.992,-77.637,-1000.000,0.000,0
1638713732.631,104.004,-39.062,-76.660,-1000.000,0.000,0
1638713732.635,-60.547,-40.039,-66.895,-1000.000,0.000,0
1638713732.639,-227.539,-46.875,-63.965,-1000.000,0.000,0
1638713732.643,-167.480,-54.688,-78.613,-1000.000,0.000,0
1638713732.647,44.434,-49.805,-82.031,-1000.000,0.000,0
1638713732.651,135.254,-44.922,-69.824,-1000.000,0.000,1
1638713732.655,-12.207,-47.852,-55.176,-1000.000,0.000,0
1638713732.659,-228.516,-56.641,-70.801,-1000.000,0.000,0
1638713732.663,-201.172,-51.270,-86.426,-1000.000,0.000,0
1638713732.668,28.320,-39.551,-76.172,-1000.000,0.000,0
1638713732.672,134.277,-41.504,-73.242,-1000.000,0.000,0
1638713732.676,-20.020,-41.504,-77.148,-1000.000,0.000,0
1638713732.672,-206.055,-36.621,-66.406,-1000.000,0.000,0
1638713732.676,-171.875,-44.434,-58.594,-1000.000,0.000,0
1638713732.680,22.949,-58.594,-72.266,-1000.000,0.000,0
1638713732.684,126.953,-51.270,-80.566,-1000.000,0.000,0
1638713732.688,19.043,-43.457,-67.871,-1000.000,0.000,0
1638713732.692,-154.297,-47.852,-48.340,-1000.000,0.000,0
1638713732.696,-198.730,-49.805,-57.617,-1000.000,0.000,0
1638713732.701,-42.480,-58.105,-84.473,-1000.000,0.000,0
1638713732.705,123.535,-54.688,-81.543,-1000.000,0.000,0
1638713732.709,57.617,-41.992,-52.246,-1000.000,0.000,0
1638713732.713,-167.969,-47.852,-58.105,-1000.000,0.000,0
1638713732.717,-235.840,-47.852,-73.730,-1000.000,0.000,0
1638713732.714,-35.156,-37.598,-67.871,-1000.000,0.000,0
1638713732.718,147.461,-29.785,-67.383,-1000.000,0.000,0
1638713732.722,70.801,-29.297,-61.523,-1000.000,0.000,0
1638713732.726,-150.391,-41.992,-62.988,-1000.000,0.000,0
1638713732.730,-216.797,-47.363,-57.129,-1000.000,0.000,0
1638713732.734,-51.758,-43.945,-57.129,-1000.000,0.000,0
1638713732.738,111.816,-51.758,-72.266,-1000.000,0.000,0
1638713732.742,71.777,-62.012,-82.031,-1000.000,0.000,0
1638713732.746,-115.234,-53.711,-71.777,-1000.000,0.000,0
1638713732.750,-228.516,-59.570,-65.430,-1000.000,0.000,0
1638713732.754,-111.328,-59.082,-84.473,-1000.000,0.000,0
1638713732.758,98.145,-39.551,-79.102,-1000.000,0.000,0
1638713732.756,109.375,-41.992,-61.035,-1000.000,0.000,0
1638713732.759,-104.004,-51.758,-70.801,-1000.000,0.000,0
1638713732.763,-253.418,-50.293,-81.543,-1000.000,0.000,0
1638713732.767,-128.906,-50.781,-71.289,-1000.000,0.000,0
1638713732.771,94.727,-47.363,-67.871,-1000.000,0.000,0
1638713732.775,115.723,-54.199,-75.684,-1000.000,0.000,0
1638713732.779,-91.309,-59.082,-76.172,-1000.000,0.000,0
1638713732.783,-241.699,-51.758,-69.336,-1000.000,0.000,0
1638713732.787,-119.629,-56.152,-49.316,-1000.000,0.000,0
1638713732.791,78.613,-63.477,-65.430,-1000.000,0.000,0
1638713732.795,113.770,-56.152,-93.262,-1000.000,0.000,0
1638713732.799,-48.828,-55.664,-72.266,-1000.000,0.000,0
1638713732.797,-239.258,-65.430,-76.660,-1000.000,0.000,0
1638713732.801,-178.223,-61.523,-86.426,-1000.000,0.000,0
1638713732.805,40.527,-58.594,-81.055,-1000.000,0.000,0
1638713732.809,129.883,-51.270,-75.195,-1000.000,0.000,0
1638713732.813,-20.020,-44.434,-70.801,-1000.000,0.000,0
1638713732.817,-210.938,-50.293,-73.242,-1000.000,0.000,0
1638713732.821,-186.523,-54.199,-70.312,-1000.000,0.000,0
1638713732.825,26.855,-48.828,-62.500,-1000.000,0.000,0
1638713732.829,135.254,-57.129,-76.172,-1000.000,0.000,0
1638713732.833,-26.367,-58.594,-93.750,-1000.000,0.000,0
1638713732.837,-219.727,-53.711,-77.148,-1000.000,0.000,0
1638713732.841,-201.172,-57.129,-70.312,-1000.000,0.000,0
1638713732.839,-5.371,-57.617,-83.496,-1000.000,0.000,0
1638713732.843,121.582,-54.199,-85.449,-1000.000,0.000,0
1638713732.847,9.766,-53.223,-68.848,-1000.000,0.000,0
1638713732.851,-195.312,-60.547,-68.848,-1000.000,0.000,0
1638713732.855,-226.562,-60.547,-83.496,-1000.000,0.000,0
1638713732.859,-28.320,-47.852,-72.266,-1000.000,0.000,0
1638713732.863,135.254,-44.434,-77.148,-1000.000,0.000,0
1638713732.867,67.871,-51.758,-62.012,-1000.000,0.000,0
1638713732.871,-152.344,-53.223,-56.152,-1000.000,0.000,0
1638713732.875,-237.793,-51.758,-83.008,-1000.000,0.000,0
1638713732.879,-39.551,-48.340,-60.059,-1000.000,0.000,0
1638713732.883,137.207,-50.781,-53.711,-1000.000,0.000,0
1638713732.882,68.359,-49.316,-66.406,-1000.000,0.000,0
1638713732.886,-146.484,-42.480,-54.688,-1000.000,0.000,0
1638713732.890,-232.422,-47.852,-50.293,-1000.000,0.000,0
1638713732.894,-74.219,-48.340,-61.523,-1000.000,0.000,0
1638713732.898,104.492,-42.480,-65.430,-1000.000,0.000,0
1638713732.902,81.543,-45.410,-56.641,-1000.000,0.000,0
1638713732.906,-116.699,-53.711,-49.805,-1000.000,0.000,0
1638713732.910,-234.863,-61.035,-50.293,-1000.000,0.000,0
1638713732.914,-124.023,-58.105,-78.613,-1000.000,0.000,0
1638713732.918,88.379,-49.316,-79.590,-1000.000,0.000,0
1638713732.922,104.004,-54.199,-56.152,-1000.000,0.000,0
1638713732.926,-106.445,-52.246,-53.711,-1000.000,0.000,0
1638713732.925,-246.094,-48.828,-59.082,-1000.000,0.000,0
1638713732.929,-134.766,-45.410,-63.965,-1000.000,0.000,0
1638713732.933,86.914,-40.527,-60.059,-1000.000,0.000,0
1638713732.936,126.465,-47.363,-61.523,-1000.000,0.000,0
1638713732.940,-71.289,-53.223,-62.012,-1000.000,0.000,0
1638713732.944,-225.586,-49.316,-47.363,-1000.000,0.000,0
1638713732.948,-155.273,-49.316,-55.664,-1000.000,0.000,0
1638713732.952,42.969,-53.223,-67.871,-1000.000,0.000,0
1638713732.956,116.699,-48.828,-66.895,-1000.000,0.000,0
1638713732.960,-45.410,-45.410,-56.641,-1000.000,0.000,0
1638713732.964,-196.289,-50.293,-25.879,-1000.000,0.000,0
1638713732.968,-145.996,-52.734,-34.668,-1000.000,0.000,0
1638713732.967,43.457,-36.133,-63.965,-1000.000,0.000,0
1638713732.971,134.277,-36.621,-65.430,-1000.000,0.000,0
1638713732.975,-25.391,-58.105,-67.383,-1000.000,0.000,0
1638713732.979,-229.004,-67.383,-71.289,-1000.000,0.000,0
1638713732.983,-199.707,-71.289,-72.754,-1000.000,0.000,0
1638713732.987,28.320,-72.754,-63.965,-1000.000,0.000,0
1638713732.991,149.414,-71.777,-50.781,-1000.000,0.000,0
1638713732.994,-2.441,-63.477,-68.359,-1000.000,0.000,0
1638713732.998,-211.426,-58.105,-72.754,-1000.000,0.000,0
1638713733.002,-203.613,-55.664,-54.199,-1000.000,0.000,0
1638713733.006,11.719,-42.480,-64.941,-1000.000,0.000,0
1638713733.010,135.742,-41.992,-78.613,-1000.000,0.000,0
1638713733.009,13.672,-60.547,-75.684,-1000.000,0.000,0
1638713733.013,-187.500,-70.312,-66.895,-1000.000,0.000,0
1638713733.017,-225.586,-69.336,-70.801,-1000.000,0.000,0
1638713733.021,-45.410,-65.918,-81.055,-1000.000,0.000,0
1638713733.025,128.418,-59.082,-69.336,-1000.000,0.000,0
1638713733.029,65.430,-61.035,-44.434,-1000.000,0.000,0
1638713733.033,-166.992,-65.918,-60.059,-1000.000,0.000,0
1638713733.037,-248.047,-62.500,-85.938,-1000.000,0.000,0
1638713733.041,-65.918,-57.617,-74.707,-1000.000,0.000,0
1638713733.045,129.883,-56.152,-55.664,-1000.000,0.000,0
1638713733.049,74.707,-59.570,-63.965,-1000.000,0.000,0
1638713733.052,-148.438,-71.777,-83.984,-1000.000,0.000,0
1638713733.053,-230.469,-73.730,-80.566,-1000.000,0.000,0
1638713733.057,-64.453,-59.570,-69.336,-1000.000,0.000,0
1638713733.061,118.164,-49.316,-75.195,-1000.000,0.000,0
1638713733.065,107.422,-41.016,-83.984,-1000.000,0.000,0
1638713733.069,-65.430,-42.480,-65.430,-1000.000,0.000,0
1638713733.073,-202.637,-53.223,-49.316,-1000.000,0.000,0
1638713733.076,-106.445,-57.617,-61.035,-1000.000,0.000,0
1638713733.080,97.656,-55.176,-65.918,-1000.000,0.000,0
1638713733.084,123.535,-56.152,-61.035,-1000.000,0.000,0
1638713733.088,-75.195,-64.453,-57.617,-1000.000,0.000,0
1638713733.092,-242.188,-64.453,-71.777,-1000.000,0.000,0
1638713733.096,-125.488,-55.664,-61.523,-1000.000,0.000,0
1638713733.097,99.121,-54.688,-43.945,-1000.000,0.000,0
1638713733.101,121.094,-69.336,-58.594,-1000.000,0.000,0
1638713733.104,-82.520,-77.637,-78.613,-1000.000,0.000,0
1638713733.108,-234.863,-71.289,-69.824,-1000.000,0.000,0
1638713733.112,-145.508,-69.336,-62.500,-1000.000,0.000,0
1638713733.116,76.660,-68.848,-63.477,-1000.000,0.000,0
1638713733.120,136.230,-73.242,-67.383,-1000.000,0.000,0
1638713733.124,-45.898,-64.941,-66.895,-1000.000,0.000,0
1638713733.128,-191.406,-61.523,-44.922,-1000.000,0.000,0
1638713733.132,-149.414,-79.102,-59.570,-1000.000,0.000,0
1638713733.136,24.902,-80.078,-90.820,-1000.000,0.000,0
1638713733.139,137.695,-66.895,-79.590,-1000.000,0.000,0
1638713733.140,-14.648,-61.523,-73.242,-1000.000,0.000,0
1638713733.144,-224.609,-68.359,-77.148,-1000.000,0.000,0
1638713733.148,-202.148,-69.824,-80.078,-1000.000,0.000,0
1638713733.152,21.973,-64.941,-76.660,-1000.000,0.000,0
1638713733.156,137.695,-60.059,-62.012,-1000.000,0.000,0
1638713733.160,4.883,-72.754,-62.988,-1000.000,0.000,0
1638713733.164,-191.895,-89.355,-83.496,-1000.000,0.000,0
1638713733.168,-203.125,-85.449,-80.078,-1000.000,0.000,0
1638713733.171,-10.254,-83.008,-74.219,-1000.000,0.000,0
1638713733.175,102.539,-83.008,-89.355,-1000.000,0.000,0
1638713733.179,4.395,-79.590,-82.520,-1000.000,0.000,0
1638713733.183,-171.875,-72.266,-54.688,-1000.000,0.000,0
1638713733.184,-214.355,-77.637,-53.711,-1000.000,0.000,0
1638713733.188,-49.316,-82.520,-82.031,-1000.000,0.000,0
1638713733.192,130.859,-68.848,-74.219,-998.535,0.000,0
1638713733.196,68.848,-68.848,-60.059,-998.535,0.000,0
1638713733.200,-151.855,-84.961,-76.660,-1000.000,0.000,0
1638713733.204,-221.680,-92.773,-81.055,-999.023,0.000,0
1638713733.207,-52.734,-78.613,-74.219,-1000.000,0.000,0
1638713733.211,145.508,-63.965,-57.129,-975.586,0.000,0
1638713733.215,90.820,-69.336,-65.430,-971.680,0.000,0
1638713733.219,-154.297,-67.383,-90.820,-1000.000,0.000,0
1638713733.223,-235.352,-66.406,-75.195,-999.023,0.000,0
1638713733.227,-77.148,-71.777,-70.312,-1000.000,0.000,0
1638713733.228,104.492,-60.059,-78.613,-982.422,0.000,0
1638713733.232,82.031,-57.129,-82.520,-979.004,0.000,0
1638713733.236,-122.070,-72.266,-78.613,-1000.000,0.000,0
1638713733.240,-232.910,-74.707,-76.172,-998.047,0.000,0
1638713733.244,-105.469,-66.895,-80.566,-1000.000,0.000,0
1638713733.247,104.980,-74.219,-79.102,-969.727,0.000,0
1638713733.251,137.695,-79.590,-68.848,-940.918,0.000,0
1638713733.255,-68.848,-83.984,-61.035,-989.746,0.000,0
1638713733.259,-250.488,-87.891,-79.590,-1000.000,0.000,0
1638713733.263,-147.461,-74.707,-86.914,-1000.000,0.000,0
1638713733.267,77.637,-75.684,-79.102,-960.449,0.000,0
1638713733.271,109.375,-82.031,-77.148,-933.105,0.000,0
1638713733.272,-72.754,-70.801,-71.289,-994.629,0.000,0
1638713733.276,-231.934,-71.777,-67.871,-1000.000,0.000,0
1638713733.280,-167.969,-74.707,-73.730,-1000.000,0.000,0
1638713733.283,50.293,-67.383,-74.219,-960.449,0.000,0
1638713733.287,126.465,-66.895,-75.195,-907.715,0.000,0
1638713733.291,-46.875,-72.266,-71.289,-966.797,0.000,0
1638713733.295,-213.379,-77.148,-57.617,-1000.000,0.000,0
1638713733.299,-173.340,-75.684,-68.359,-1000.000,0.000,0
1638713733.303,-1.465,-61.523,-92.285,-971.191,0.000,0
1638713733.307,113.281,-48.340,-78.125,-895.508,0.000,0
1638713733.311,-17.578,-50.781,-70.312,-942.383,0.000,0
1638713733.314,-208.008,-48.828,-68.848,-1000.000,0.000,0
1638713733.316,-196.777,-45.898,-71.289,-1000.000,0.000,0
1638713733.320,0.000,-47.852,-72.266,-937.988,0.000,0
1638713733.323,124.023,-48.340,-74.219,-853.027,0.000,0
1638713733.327,4.395,-45.898,-83.984,-930.176,0.000,0
1638713733.331,-186.523,-45.410,-79.102,-1000.000,0.000,0
1638713733.335,-202.148,-47.363,-68.848,-999.023,0.000,0
1638713733.339,-7.812,-48.340,-67.383,-920.410,0.000,0
1638713733.343,120.605,-40.527,-87.402,-854.492,0.000,0
1638713733.347,28.809,-24.902,-88.379,-912.598,0.000,0
1638713733.350,-168.945,-28.320,-69.336,-989.746,0.000,0
1638713733.354,-226.074,-35.645,-69.336,-1000.000,0.000,0
1638713733.358,-45.410,-36.133,-77.637,-927.246,0.000,0
1638713733.360,121.582,-36.133,-80.078,-824.707,0.000,0
1638713733.363,54.688,-37.598,-70.312,-846.680,0.000,0
1638713733.367,-152.344,-41.016,-71.777,-953.125,0.000,0
1638713733.371,-233.887,-30.273,-77.637,-1000.000,0.000,0
1638713733.375,-59.570,-20.020,-66.406,-924.316,0.000,0
1638713733.379,141.602,-22.461,-63.477,-805.176,0.000,0
1638713733.383,88.867,-27.832,-67.383,-828.125,0.000,0
1638713733.387,-141.602,-36.133,-73.242,-950.195,0.000,2
1638713733.390,-227.051,-33.203,-70.801,-1000.000,0.000,0
1638713733.394,-62.988,-36.133,-58.594,-912.598,0.000,0
1638713733.398,95.703,-41.016,-74.219,-820.801,0.000,0
1638713733.402,65.918,-39.551,-88.379,-833.008,0.000,0
1638713733.404,-112.793,-43.945,-74.707,-915.527,0.000,0
1638713733.408,-237.305,-40.039,-64.941,-982.910,0.000,0
1638713733.412,-128.418,-34.180,-69.824,-931.641,0.000,0
1638713733.416,73.730,-27.832,-74.707,-822.266,0.000,0
1638713733.420,107.910,-22.949,-64.941,-789.062,0.000,0
1638713733.424,-72.266,-28.320,-53.711,-870.117,0.000,0
1638713733.428,-217.285,-38.086,-65.918,-947.266,0.000,0
1638713733.431,-135.254,-40.527,-74.219,-905.762,0.000,0
1638713733.435,62.988,-43.457,-71.289,-803.711,0.000,0
1638713733.439,124.023,-33.691,-68.359,-763.672,0.000,0
1638713733.443,-69.336,-28.320,-75.195,-868.652,0.000,0
1638713733.447,-240.234,-34.180,-70.801,-957.031,0.000,0
1638713733.449,-157.227,-43.945,-58.105,-908.203,0.000,0
1638713733.453,53.711,-41.504,-63.477,-801.270,0.000,0
1638713733.457,125.000,-27.344,-73.242,-751.465,0.000,0
1638713733.461,-33.691,-25.391,-66.895,-833.984,0.000,0
1638713733.465,-208.984,-39.551,-57.129,-929.688,0.000,0
1638713733.468,-161.621,-44.922,-61.035,-900.879,0.000,0
1638713733.472,28.320,-38.574,-73.730,-811.523,0.000,0
1638713733.476,117.676,-43.945,-87.402,-767.090,0.000,0
1638713733.480,10.742,-51.758,-60.547,-798.828,0.000,0
1638713733.484,-183.105,-49.805,-54.688,-890.625,0.000,0
1638713733.488,-200.195,-40.527,-76.660,-907.715,0.000,0
1638713733.492,16.113,-37.109,-69.336,-792.480,0.000,0
1638713733.494,148.438,-34.668,-70.801,-729.004,0.000,0
1638713733.498,15.137,-32.715,-71.289,-787.598,0.000,0
1638713733.502,-187.500,-29.785,-68.848,-893.555,0.000,0
1638713733.506,-196.777,-25.391,-58.594,-900.391,0.000,0
1638713733.509,-12.207,-31.738,-62.988,-804.199,0.000,0
1638713733.513,138.672,-39.551,-74.707,-728.516,0.000,0
1638713733.517,54.688,-37.598,-73.242,-770.996,0.000,0
1638713733.521,-148.438,-35.156,-60.547,-870.605,0.000,0
1638713733.525,-202.148,-45.410,-51.758,-888.184,0.000,0
1638713733.529,-57.129,-50.781,-73.242,-824.707,0.000,0
1638713733.532,108.887,-34.668,-86.914,-741.211,0.000,0
1638713733.536,74.219,-27.344,-70.801,-731.934,0.000,0
1638713733.539,-129.883,-40.527,-58.105,-823.242,0.000,0
1638713733.543,-228.516,-39.062,-70.312,-896.484,0.000,0
1638713733.546,-70.312,-37.598,-69.336,-825.684,0.000,0
1638713733.550,113.770,-49.316,-70.312,-716.797,0.000,0
1638713733.554,74.707,-45.898,-71.289,-730.957,0.000,0
1638713733.558,-125.977,-48.340,-65.918,-834.473,0.000,0
1638713733.562,-229.004,-56.152,-62.500,-885.254,0.000,0
1638713733.566,-77.148,-49.316,-39.551,-786.133,0.000,0
1638713733.570,118.652,-55.664,-52.734,-680.176,0.000,0
1638713733.573,98.633,-56.152,-81.543,-707.031,0.000,0
1638713733.577,-91.797,-49.805,-68.359,-798.828,0.000,0
1638713733.581,-230.469,-47.363,-68.848,-865.234,0.000,0
1638713733.584,-120.605,-49.316,-78.613,-807.617,0.000,0
1638713733.588,91.797,-53.711,-81.055,-693.848,0.000,0
1638713733.592,120.605,-52.246,-72.754,-665.039,0.000,0
1638713733.596,-58.105,-50.293,-69.336,-761.230,0.000,0
1638713733.600,-207.031,-50.293,-62.012,-844.238,0.000,0
1638713733.604,-142.578,-57.617,-68.359,-807.617,0.000,0
1638713733.607,70.801,-51.270,-70.801,-698.730,0.000,0
1638713733.611,155.762,-43.457,-57.617,-638.672,0.000,0
1638713733.615,-48.340,-51.270,-78.613,-751.953,0.000,0
1638713733.619,-233.887,-48.340,-86.914,-867.188,0.000,0
1638713733.623,-133.789,-40.527,-58.594,-802.246,0.000,0
1638713733.627,88.867,-40.039,-50.293,-686.523,0.000,0
1638713733.631,145.508,-41.504,-75.195,-658.691,0.000,0
1638713733.634,-19.531,-44.434,-80.566,-738.770,0.000,0
1638713733.638,-199.219,-47.363,-71.289,-827.148,0.000,0
1638713733.642,-166.504,-44.434,-76.660,-812.988,0.000,0
1638713733.646,33.691,-43.945,-88.379,-724.609,0.000,0
1638713733.650,147.949,-46.875,-78.613,-649.902,0.000,0
1638713733.654,-4.395,-49.316,-75.684,-706.543,0.000,0
1638713733.658,-213.867,-55.664,-76.660,-823.242,0.000,0
1638713733.661,-202.637,-55.176,-69.336,-817.871,0.000,0
1638713733.665,-3.418,-45.898,-80.566,-728.516,0.000,0
1638713733.669,168.457,-46.387,-62.988,-630.859,0.000,0
1638713733.673,44.922,-53.223,-69.336,-683.594,0.000,0
1638713733.675,-198.730,-49.316,-91.797,-821.289,0.000,0
1638713733.679,-212.402,-45.898,-74.219,-818.359,0.000,0
1638713733.683,-20.996,-41.016,-73.242,-716.797,0.000,0
1638713733.687,140.137,-42.480,-80.078,-639.648,0.000,0
1638713733.691,49.805,-43.457,-77.637,-680.664,0.000,0
1638713733.695,-168.457,-37.109,-69.336,-776.855,0.000,0
1638713733.698,-209.473,-33.203,-64.941,-800.293,0.000,0
1638713733.702,-50.293,-39.062,-80.566,-726.074,0.000,0
1638713733.706,101.074,-43.945,-96.680,-653.320,0.000,0
1638713733.710,61.035,-41.016,-76.660,-658.203,0.000,0
1638713733.714,-129.395,-40.039,-59.570,-743.164,0.000,0
1638713733.718,-230.957,-41.016,-70.801,-808.594,0.000,0
1638713733.720,-86.914,-34.668,-81.055,-733.398,0.000,0
1638713733.724,125.977,-23.926,-64.453,-592.285,0.000,0
1638713733.728,105.957,-37.109,-52.734,-586.426,0.000,0
1638713733.732,-138.672,-42.969,-73.730,-749.023,0.000,0
1638713733.735,-246.094,-32.715,-72.266,-811.523,0.000,0
1638713733.739,-76.660,-36.621,-61.035,-704.590,0.000,0
1638713733.743,100.586,-44.434,-77.637,-610.840,0.000,0
1638713733.747,78.125,-39.062,-94.238,-634.766,0.000,0
1638713733.751,-104.004,-36.621,-78.613,-725.098,0.000,0
1638713733.755,-226.562,-44.922,-69.336,-782.715,0.000,0
1638713733.758,-126.953,-41.504,-78.125,-734.863,0.000,0
1638713733.762,74.707,-28.320,-85.449,-644.531,0.000,0
1638713733.765,118.164,-31.250,-86.914,-611.816,0.000,0
1638713733.769,-47.363,-44.922,-63.477,-664.551,0.000,0
1638713733.773,-224.121,-49.316,-76.172,-766.113,0.000,0
1638713733.777,-166.504,-44.434,-100.098,-754.395,0.000,0
1638713733.781,65.918,-44.434,-87.402,-623.535,0.000,0
1638713733.785,147.461,-39.551,-77.637,-576.660,0.000,0
1638713733.789,-22.949,-33.203,-74.707,-657.715,0.000,0
1638713733.792,-211.914,-35.645,-75.195,-752.930,0.000,0
1638713733.796,-154.785,-32.715,-73.730,-722.168,0.000,0
1638713733.800,55.176,-35.156,-78.125,-606.934,0.000,0
1638713733.804,123.047,-42.969,-92.285,-580.078,0.000,0
1638713733.808,-18.066,-40.039,-85.449,-652.832,0.000,0
1638713733.811,-196.777,-37.598,-69.824,-739.746,0.000,0
1638713733.815,-178.711,-43.945,-69.824,-734.375,0.000,0
1638713733.819,20.508,-51.270,-83.008,-637.207,0.000,0
1638713733.822,148.926,-46.875,-77.637,-566.406,0.000,0
1638713733.826,38.574,-43.945,-67.871,-608.887,0.000,0
1638713733.830,-152.832,-50.781,-63.965,-702.148,0.000,0
1638713733.834,-191.406,-56.641,-57.129,-740.234,0.000,0
1638713733.838,-27.344,-59.082,-69.336,-672.363,0.000,0
1638713733.842,150.391,-45.898,-66.406,-560.547,0.000,0
1638713733.845,50.781,-35.645,-61.523,-604.980,0.000,0
1638713733.849,-203.125,-40.527,-83.984,-757.812,0.000,0
1638713733.853,-227.539,-50.781,-76.660,-767.090,0.000,0
1638713733.856,-35.156,-56.152,-74.219,-665.039,0.000,0
1638713733.860,114.258,-49.316,-76.660,-579.590,0.000,0
1638713733.864,48.828,-41.016,-62.500,-604.004,0.000,0
1638713733.868,-157.715,-41.016,-54.199,-703.613,0.000,0
1638713733.872,-240.234,-50.293,-56.152,-734.375,0.000,0
1638713733.876,-66.895,-49.316,-62.012,-656.738,0.000,0
1638713733.879,120.605,-39.551,-65.430,-569.336,0.000,0
1638713733.883,80.078,-30.762,-58.105,-573.730,0.000,0
1638713733.887,-119.629,-34.180,-50.293,-667.480,0.000,0
1638713733.891,-240.723,-47.363,-73.242,-747.070,0.000,0
1638713733.895,-90.332,-50.781,-84.961,-682.617,0.000,0
1638713733.899,119.629,-41.504,-65.918,-555.664,0.000,0
1638713733.902,89.844,-34.180,-56.641,-554.688,0.000,0
1638713733.906,-127.441,-40.039,-66.406,-673.828,0.000,0
1638713733.910,-248.047,-45.410,-68.848,-739.258,0.000,0
1638713733.914,-126.953,-51.270,-67.383,-674.805,0.000,0
1638713733.918,83.496,-51.758,-67.871,-562.012,0.000,0
1638713733.922,111.328,-49.805,-62.988,-538.086,0.000,0
1638713733.925,-85.938,-43.945,-63.477,-641.602,0.000,0
1638713733.929,-211.914,-42.969,-41.016,-689.453,0.000,0
1638713733.933,-126.465,-56.152,-57.129,-661.621,0.000,0
1638713733.937,54.688,-45.410,-87.891,-597.656,0.000,0
1638713733.941,122.070,-33.691,-60.059,-539.551,0.000,0
1638713733.945,-52.734,-43.457,-55.176,-618.164,0.000,0
1638713733.948,-220.215,-49.316,-70.801,-710.938,0.000,0
1638713733.952,-142.090,-39.551,-69.336,-671.875,0.000,0
1638713733.955,74.219,-33.691,-60.547,-545.898,0.000,0
1638713733.959,146.484,-39.551,-58.105,-498.047,0.000,0
1638713733.963,-31.738,-46.875,-65.918,-595.215,0.000,0
1638713733.967,-205.566,-42.969,-58.594,-684.570,0.000,0
1638713733.971,-152.344,-41.504,-51.758,-653.320,0.000,0
1638713733.975,41.992,-33.691,-59.082,-554.688,0.000,0
1638713733.978,132.812,-25.879,-77.637,-529.297,0.000,0
1638713733.982,-17.578,-30.762,-81.055,-602.539,0.000,0
1638713733.986,-206.543,-36.133,-57.617,-668.945,0.000,0
1638713733.990,-184.570,-47.852,-54.688,-651.855,0.000,0
1638713733.994,-3.906,-52.246,-82.031,-586.426,0.000,0
1638713733.998,128.906,-37.598,-76.660,-524.902,0.000,0
1638713734.001,39.062,-34.668,-50.781,-549.316,0.000,0
1638713734.005,-175.293,-36.621,-45.898,-665.039,0.000,0
1638713734.009,-220.703,-30.273,-68.848,-709.473,0.000,0
1638713734.013,-6.836,-26.367,-80.078,-611.328,0.000,0
1638713734.017,162.598,-27.344,-56.641,-489.258,0.000,0
1638713734.021,41.992,-36.621,-55.176,-525.391,0.000,0
1638713734.024,-198.242,-42.969,-86.426,-665.039,0.000,0
1638713734.028,-226.074,-38.086,-72.266,-671.387,0.000,0
1638713734.032,-32.715,-41.016,-59.082,-575.195,0.000,0
1638713734.036,121.582,-39.062,-63.965,-491.211,0.000,0
1638713734.039,45.898,-35.156,-64.453,-519.531,0.000,0
1638713734.043,-152.832,-30.273,-60.547,-630.859,0.000,0
1638713734.047,-223.633,-26.855,-70.312,-673.828,0.000,0
1638713734.051,-79.102,-35.645,-79.590,-600.586,0.000,0
1638713734.054,104.004,-42.969,-82.031,-513.184,0.000,0
1638713734.058,80.566,-43.945,-72.754,-516.113,0.000,0
1638713734.062,-126.465,-47.363,-67.871,-626.953,0.000,0
1638713734.066,-233.887,-44.434,-84.961,-701.172,0.000,0
1638713734.070,-93.750,-43.457,-88.867,-626.953,0.000,0
1638713734.074,104.492,-44.922,-73.242,-507.812,0.000,0
1638713734.077,102.051,-44.922,-64.941,-493.652,0.000,0
1638713734.081,-119.629,-43.457,-87.891,-625.977,0.000,0
1638713734.084,-243.164,-30.273,-82.520,-698.242,0.000,0
1638713734.088,-113.281,-34.180,-72.754,-616.699,0.000,0
1638713734.092,87.402,-50.781,-76.172,-503.906,0.000,0
1638713734.096,107.910,-46.387,-72.266,-496.094,0.000,0
1638713734.100,-83.984,-39.551,-64.453,-593.750,0.000,0
1638713734.103,-214.844,-38.574,-43.945,-633.301,0.000,0
1638713734.107,-128.906,-38.574,-61.035,-597.656,0.000,0
1638713734.111,63.965,-30.762,-82.031,-521.484,0.000,0
1638713734.115,129.883,-23.926,-67.383,-467.285,0.000,0
1638713734.119,-45.410,-26.367,-62.988,-547.852,0.000,0
1638713734.123,-221.191,-32.715,-68.848,-651.367,0.000,0
1638713734.126,-161.133,-31.738,-79.102,-631.348,0.000,1
1638713734.130,53.223,-32.227,-75.195,-509.277,0.000,0
1638713734.134,137.207,-40.039,-71.289,-457.031,0.000,0
1638713734.138,-22.949,-37.109,-73.730,-561.523,0.000,0
1638713734.142,-221.191,-34.180,-74.707,-670.410,0.000,0
1638713734.145,-184.082,-31.738,-69.824,-634.766,0.000,0
1638713734.149,28.320,-35.645,-61.523,-514.160,0.000,0
1638713734.153,117.188,-38.574,-70.801,-463.867,0.000,0
1638713734.157,-26.367,-35.645,-80.566,-544.434,0.000,0
1638713734.161,-212.891,-37.598,-73.730,-644.043,0.000,0
1638713734.165,-207.031,-35.156,-73.730,-644.531,0.000,0
1638713734.169,-13.672,-24.414,-93.262,-561.523,0.000,0
1638713734.172,141.113,-18.066,-76.660,-468.750,0.000,0
1638713734.176,30.762,-33.691,-66.895,-515.625,0.000,0
1638713734.180,-183.594,-37.598,-72.754,-636.719,0.000,0
1638713734.184,-229.004,-33.203,-81.543,-662.109,0.000,0
1638713734.188,-40.527,-35.645,-77.148,-554.688,0.000,0
1638713734.191,134.766,-35.645,-64.453,-450.195,0.000,0
1638713734.195,53.711,-42.969,-67.383,-500.000,0.000,0
1638713734.199,-156.250,-40.527,-67.871,-620.117,0.000,0
1638713734.203,-222.656,-38.086,-76.172,-658.691,0.000,0
1638713734.207,-30.762,-45.410,-62.988,-533.691,0.000,0
1638713734.211,138.672,-48.340,-70.312,-440.918,0.000,0
1638713734.214,47.363,-44.434,-94.238,-512.695,0.000,0
1638713734.218,-145.020,-42.969,-75.195,-616.699,0.000,0
1638713734.222,-230.957,-52.734,-75.684,-665.039,0.000,0
1638713734.226,-87.402,-52.246,-84.473,-592.773,0.000,0
1638713734.230,114.746,-44.434,-84.473,-477.051,0.000,0
1638713734.234,85.449,-42.480,-79.590,-482.422,0.000,0
1638713734.238,-120.117,-40.039,-68.359,-590.332,0.000,0
1638713734.242,-218.262,-38.574,-65.918,-636.230,0.000,0
1638713734.245,-83.496,-35.645,-72.266,-573.242,0.000,0
1638713734.249,128.906,-32.715,-77.148,-472.168,0.000,0
1638713734.253,129.883,-51.270,-84.961,-471.680,0.000,0
1638713734.257,-109.375,-67.383,-106.934,-610.352,0.000,0
1638713734.261,-236.816,-54.199,-97.656,-676.758,0.000,0
1638713734.265,-104.492,-44.922,-73.730,-595.215,0.000,0
1638713734.268,93.750,-40.527,-68.848,-493.652,0.000,0
1638713734.272,114.746,-35.645,-80.566,-479.492,0.000,0
1638713734.276,-71.777,-27.344,-68.359,-559.570,0.000,0
1638713734.280,-213.379,-19.043,-49.805,-630.371,0.000,0
1638713734.284,-126.465,-28.809,-64.453,-601.562,0.000,0
1638713734.287,71.777,-42.969,-84.473,-495.117,0.000,0
1638713734.291,125.977,-45.410,-85.449,-461.426,0.000,0
1638713734.295,-39.062,-44.922,-67.871,-547.852,0.000,0
1638713734.299,-233.398,-50.293,-76.172,-641.602,0.000,0
1638713734.303,-180.176,-44.922,-83.496,-620.117,0.000,0
1638713734.307,49.316,-36.621,-81.543,-505.371,0.000,0
1638713734.310,166.504,-33.203,-61.035,-422.852,0.000,0
1638713734.314,-5.859,-38.574,-61.035,-504.395,0.000,0
1638713734.318,-229.980,-40.527,-84.961,-624.512,0.000,0
1638713734.322,-183.105,-34.668,-77.148,-602.539,0.000,0
1638713734.325,29.785,-32.227,-80.078,-501.465,0.000,0
1638713734.329,131.836,-41.504,-79.590,-443.359,0.000,0
1638713734.333,-2.930,-41.504,-59.082,-504.883,0.000,0
1638713734.337,-183.594,-34.180,-47.363,-596.680,0.000,0
1638713734.341,-175.293,-40.039,-51.270,-590.820,0.000,0
1638713734.345,-9.766,-40.039,-82.520,-509.766,0.000,0
1638713734.348,112.305,-32.715,-85.449,-443.848,0.000,0
1638713734.352,31.738,-33.203,-62.500,-484.375,0.000,0
1638713734.356,-173.340,-45.898,-61.035,-598.145,0.000,0
1638713734.360,-216.309,-41.992,-68.359,-621.094,0.000,0
1638713734.364,-26.367,-27.832,-71.289,-521.484,0.000,0
1638713734.367,144.043,-35.156,-66.895,-425.293,0.000,0
1638713734.371,56.641,-44.922,-66.895,-466.309,0.000,0
1638713734.375,-156.250,-38.574,-61.035,-578.125,0.000,0
1638713734.379,-205.566,-34.668,-53.223,-604.004,0.000,0
1638713734.383,-31.250,-41.992,-56.641,-504.395,0.000,0
1638713734.387,133.789,-46.875,-71.289,-416.016,0.000,0
1638713734.390,57.617,-50.781,-85.449,-469.727,0.000,0
1638713734.394,-167.969,-58.594,-81.543,-583.984,0.000,0
1638713734.398,-246.582,-60.547,-83.008,-621.094,0.000,0
1638713734.402,-67.383,-54.688,-76.660,-530.762,0.000,0
1638713734.405,110.840,-43.945,-79.590,-446.777,0.000,0
1638713734.409,86.914,-34.180,-69.824,-461.914,0.000,0
1638713734.413,-117.188,-32.715,-61.035,-566.406,0.000,0
1638713734.417,-246.094,-35.645,-68.848,-623.535,0.000,0
1638713734.421,-115.723,-39.062,-72.266,-546.875,0.000,0
1638713734.424,103.027,-43.945,-63.965,-429.688,0.000,0
1638713734.428,111.816,-59.082,-57.129,-417.969,0.000,0
1638713734.432,-117.188,-67.383,-79.102,-552.734,0.000,0
1638713734.436,-259.766,-58.594,-90.820,-644.043,0.000,0
1638713734.440,-139.648,-50.293,-73.730,-562.500,0.000,0
1638713734.444,63.477,-45.898,-73.242,-446.777,0.000,0
1638713734.447,90.820,-40.527,-85.449,-437.988,0.000,0
1638713734.451,-90.332,-36.621,-81.055,-531.250,0.000,0
1638713734.455,-236.328,-43.945,-71.289,-606.445,0.000,0
1638713734.459,-156.250,-55.176,-74.707,-571.289,0.000,0
1638713734.462,40.527,-52.246,-91.309,-477.051,0.000,0
1638713734.466,121.094,-34.668,-70.312,-424.316,0.000,0
1638713734.470,-26.367,-39.062,-38.086,-472.656,0.000,0
1638713734.474,-229.492,-58.105,-66.895,-581.055,0.000,0
1638713734.478,-197.754,-46.875,-89.844,-584.961,0.000,0
1638713734.482,29.785,-29.297,-76.660,-456.055,0.000,0
1638713734.485,141.113,-28.809,-62.988,-382.324,0.000,0
1638713734.489,-24.902,-34.180,-69.824,-477.051,0.000,0
1638713734.493,-218.750,-37.598,-75.684,-604.980,0.000,0
1638713734.498,-191.895,-42.969,-64.453,-584.473,0.000,0
1638713734.502,-1.465,-51.270,-66.895,-472.656,0.000,0
1638713734.506,123.047,-48.340,-65.430,-409.180,0.000,0
1638713734.510,-6.836,-42.480,-60.547,-474.609,0.000,0
1638713734.514,-203.613,-43.457,-57.617,-575.195,0.000,0
1638713734.517,-198.242,-51.270,-53.223,-567.383,0.000,0
1638713734.521,-13.184,-51.758,-64.453,-478.516,0.000,0
1638713734.525,125.000,-47.363,-74.707,-400.879,0.000,0
1638713734.529,48.340,-46.875,-70.801,-440.918,0.000,0
1638713734.533,-165.527,-53.223,-67.871,-558.105,0.000,0
1638713734.537,-242.676,-55.176,-88.379,-604.980,0.000,0
1638713734.540,-44.434,-46.875,-89.355,-512.695,0.000,0
1638713734.544,136.719,-44.922,-74.707,-406.250,0.000,0
1638713734.548,53.711,-45.410,-73.242,-445.801,0.000,0
1638713734.552,-181.152,-50.781,-77.637,-565.918,0.000,0
1638713734.556,-239.746,-48.828,-74.707,-597.656,0.000,0
1638713734.560,-51.270,-44.922,-71.777,-502.441,0.000,0
1638713734.564,135.742,-42.480,-70.801,-398.438,0.000,0
1638713734.567,73.242,-48.828,-66.895,-429.199,0.000,0
1638713734.571,-141.113,-48.828,-62.988,-542.480,0.000,0
1638713734.575,-226.562,-50.293,-58.594,-576.172,0.000,0
1638713734.579,-97.168,-57.129,-72.754,-510.254,0.000,0
1638713734.583,83.496,-54.688,-87.402,-427.734,0.000,0
1638713734.587,73.242,-52.246,-78.125,-423.828,0.000,0
1638713734.590,-129.883,-54.688,-68.359,-523.438,0.000,0
1638713734.594,-253.906,-56.641,-74.219,-596.680,0.000,0
1638713734.598,-127.930,-52.246,-74.219,-535.156,0.000,0
1638713734.602,83.008,-46.875,-66.406,-408.691,0.000,0
1638713734.606,118.164,-48.340,-53.223,-372.070,0.000,0
1638713734.610,-88.867,-55.664,-58.594,-491.699,0.000,0
1638713734.613,-252.930,-52.246,-71.777,-591.309,0.000,0
1638713734.617,-140.625,-51.758,-65.430,-529.297,0.000,0
1638713734.621,79.102,-49.805,-62.500,-399.414,0.000,0
1638713734.625,91.797,-54.199,-81.543,-398.438,0.000,0
1638713734.629,-92.285,-51.758,-73.730,-500.000,0.000,0
1638713734.633,-229.004,-40.039,-56.152,-558.105,0.000,0
1638713734.637,-166.992,-36.133,-68.848,-525.879,0.000,0
1638713734.640,32.227,-39.062,-84.961,-439.453,0.000,0
1638713734.644,106.934,-40.527,-79.590,-394.043,0.000,0
1638713734.648,-52.734,-43.945,-68.359,-465.820,0.000,0
1638713734.652,-225.586,-48.340,-61.035,-562.012,0.000,0
1638713734.656,-180.176,-43.457,-60.059,-535.645,0.000,0
1638713734.660,24.414,-34.180,-68.359,-436.035,0.000,0
1638713734.663,136.719,-40.039,-50.781,-369.629,0.000,0
1638713734.667,-13.184,-55.664,-59.570,-442.871,0.000,0
1638713734.671,-236.328,-49.316,-91.797,-586.914,0.000,0
1638713734.675,-209.961,-41.992,-76.172,-571.777,0.000,0
1638713734.679,0.977,-45.898,-77.148,-448.730,0.000,0
1638713734.684,108.398,-41.504,-81.055,-387.695,0.000,0
1638713734.687,-10.742,-36.621,-72.266,-458.008,0.000,0
1638713734.691,-197.266,-40.039,-63.965,-554.688,0.000,0
1638713734.695,-219.238,-34.668,-56.152,-554.688,0.000,0
1638713734.699,-26.367,-26.855,-57.617,-459.961,0.000,0
1638713734.703,138.184,-29.785,-55.664,-372.559,0.000,0
1638713734.707,46.875,-34.668,-48.340,-405.273,0.000,0
1638713734.710,-169.434,-47.363,-52.734,-509.766,0.000,0
1638713734.714,-251.953,-49.316,-77.637,-568.359,0.000,0
1638713734.718,-77.637,-35.156,-83.984,-474.121,0.000,0
1638713734.722,122.559,-34.668,-74.707,-354.980,0.000,0
1638713734.726,62.012,-35.645,-67.871,-381.836,0.000,0
1638713734.729,-170.898,-37.109,-65.430,-494.629,0.000,0
1638713734.733,-252.441,-45.898,-75.684,-536.133,0.000,0
1638713734.737,-74.219,-55.664,-70.312,-440.430,0.000,0
1638713734.741,107.422,-49.805,-65.918,-347.168,0.000,0
1638713734.745,68.848,-43.945,-75.684,-365.723,0.000,0
1638713734.749,-122.559,-48.340,-65.430,-456.543,0.000,0
1638713734.753,-234.863,-53.223,-65.918,-514.648,0.000,0
1638713734.756,-110.840,-56.641,-79.590,-457.520,0.000,0
1638713734.760,78.125,-45.410,-81.055,-356.934,0.000,0
1638713734.764,81.055,-39.551,-66.895,-337.402,0.000,0
1638713734.768,-107.422,-46.387,-57.617,-430.664,0.000,0
1638713734.772,-244.629,-48.340,-69.824,-519.043,0.000,0
1638713734.775,-142.090,-49.316,-76.172,-463.867,0.000,0
1638713734.779,73.242,-41.016,-72.754,-334.961,0.000,0
1638713734.783,135.254,-37.598,-51.758,-288.574,0.000,0
1638713734.787,-81.543,-55.176,-68.848,-411.133,0.000,0
1638713734.791,-263.672,-58.105,-86.426,-519.531,0.000,0
1638713734.795,-140.137,-48.828,-69.824,-440.918,0.000,0
1638713734.798,85.938,-48.828,-58.594,-313.477,0.000,0
1638713734.802,117.188,-53.223,-73.730,-316.406,0.000,0
1638713734.806,-65.918,-46.387,-84.961,-415.039,0.000,0
1638713734.810,-210.938,-47.852,-63.965,-463.867,0.000,0
1638713734.814,-139.648,-47.852,-51.758,-423.828,0.000,0
1638713734.818,51.270,-32.715,-65.430,-341.309,0.000,0
1638713734.821,123.535,-22.461,-72.754,-295.410,0.000,0
1638713734.825,-5.371,-21.973,-44.922,-349.609,0.000,0
1638713734.829,-190.918,-22.949,-46.875,-457.031,0.000,0
1638713734.833,-185.547,-26.855,-72.754,-468.262,0.000,0
1638713734.837,16.113,-34.180,-72.266,-352.051,0.000,0
1638713734.840,149.414,-38.574,-53.711,-248.535,0.000,0
1638713734.844,-2.441,-42.969,-62.988,-347.656,0.000,0
1638713734.848,-251.953,-49.805,-86.914,-509.277,0.000,0
1638713734.852,-219.238,-42.969,-69.824,-485.840,0.000,0
1638713734.856,14.648,-36.133,-56.152,-357.910,0.000,0
1638713734.860,115.723,-36.133,-78.613,-301.270,0.000,0
1638713734.863,0.488,-29.785,-76.660,-364.746,0.000,0
1638713734.868,-191.406,-35.645,-66.406,-466.309,0.000,0
1638713734.871,-229.492,-41.992,-77.148,-487.305,0.000,0
1638713734.875,-47.852,-36.621,-79.590,-393.066,0.000,0
1638713734.879,118.652,-32.715,-80.566,-320.801,0.000,0
1638713734.883,38.086,-41.504,-78.613,-364.258,0.000,0
1638713734.887,-177.734,-48.828,-73.730,-469.727,0.000,0
1638713734.891,-230.469,-46.875,-71.777,-503.418,0.000,0
1638713734.894,-61.035,-39.062,-81.055,-420.898,0.000,0
1638713734.898,118.164,-30.273,-68.848,-319.336,0.000,0
1638713734.902,70.312,-37.598,-54.688,-341.797,0.000,0
1638713734.906,-163.574,-41.016,-78.613,-478.516,0.000,0
1638713734.910,-244.141,-39.062,-81.543,-524.902,0.000,0
1638713734.914,-50.293,-36.621,-58.594,-413.086,0.000,0
1638713734.918,142.578,-38.086,-64.453,-298.340,0.000,0
1638713734.922,84.473,-40.527,-82.031,-342.773,0.000,0
1638713734.925,-140.625,-41.504,-74.219,-456.543,0.000,0
1638713734.929,-246.094,-50.781,-71.777,-510.254,0.000,0
1638713734.933,-81.055,-47.852,-70.801,-434.570,0.000,0
1638713734.937,120.605,-38.086,-70.801,-324.707,0.000,1
1638713734.941,100.098,-33.203,-75.684,-333.496,0.000,0
1638713734.945,-85.449,-40.039,-53.711,-421.875,0.000,0
1638713734.948,-220.703,-51.758,-53.711,-497.070,0.000,0
1638713734.952,-123.047,-41.504,-89.355,-475.098,0.000,0
1638713734.956,97.168,-25.391,-75.195,-352.051,0.000,0
1638713734.960,125.000,-33.203,-67.871,-322.754,0.000,0
1638713734.964,-65.430,-33.691,-70.801,-419.922,0.000,0
1638713734.968,-223.633,-25.391,-60.059,-499.023,0.000,0
1638713734.972,-136.719,-29.785,-54.688,-450.684,0.000,0
1638713734.975,76.660,-30.273,-63.477,-343.262,0.000,0
1638713734.979,116.211,-35.645,-70.801,-319.336,0.000,0
1638713734.983,-54.688,-40.039,-70.801,-401.367,0.000,0
1638713734.987,-211.426,-35.645,-63.477,-481.445,0.000,0
1638713734.991,-148.438,-40.039,-54.688,-443.848,0.000,0
1638713734.995,40.039,-46.387,-76.660,-368.652,0.000,0
1638713734.999,117.188,-35.645,-83.008,-328.125,0.000,0
1638713735.002,-18.066,-26.855,-61.035,-363.281,0.000,0
1638713735.006,-211.914,-36.133,-60.547,-469.727,0.000,0
1638713735.010,-200.684,-48.828,-80.566,-482.910,0.000,0
1638713735.014,11.719,-57.129,-82.031,-373.535,0.000,0
1638713735.018,148.926,-48.340,-70.312,-297.852,0.000,0
1638713735.022,9.277,-39.551,-67.383,-368.652,0.000,0
1638713735.026,-203.613,-42.969,-60.059,-477.539,0.000,0
1638713735.029,-200.684,-46.387,-67.383,-477.539,0.000,0
1638713735.033,15.137,-44.434,-61.035,-349.609,0.000,0
1638713735.037,161.133,-41.504,-50.293,-266.113,0.000,0
1638713735.041,11.230,-41.016,-76.660,-363.770,0.000,0
1638713735.045,-206.055,-40.527,-82.031,-480.957,0.000,0
1638713735.049,-230.957,-42.480,-80.078,-498.047,0.000,0
1638713735.053,-44.434,-40.039,-92.285,-404.785,0.000,0
1638713735.056,122.070,-29.297,-86.914,-313.477,0.000,0
1638713735.060,45.898,-29.785,-77.637,-354.004,0.000,0
1638713735.064,-166.016,-39.551,-78.613,-466.309,0.000,0
1638713735.068,-232.422,-46.387,-85.449,-501.953,0.000,0
1638713735.072,-38.086,-39.062,-70.312,-399.902,0.000,0
1638713735.076,138.184,-22.949,-61.035,-295.898,0.000,0
1638713735.079,66.895,-36.133,-69.824,-325.684,0.000,0
1638713735.083,-158.691,-44.434,-82.520,-450.195,0.000,0
1638713735.087,-250.977,-27.832,-80.566,-502.441,0.000,0
1638713735.091,-71.289,-24.902,-68.359,-400.391,0.000,0
1638713735.095,126.465,-22.949,-64.453,-285.156,0.000,0
1638713735.099,83.496,-21.973,-76.172,-324.707,0.000,0
1638713735.103,-119.629,-30.273,-85.449,-444.824,0.000,0
1638713735.107,-221.191,-39.551,-74.219,-490.723,0.000,0
1638713735.111,-99.121,-41.016,-75.195,-430.664,0.000,0
1638713735.115,94.238,-34.668,-86.426,-330.078,0.000,0
1638713735.118,105.957,-27.344,-75.195,-312.500,0.000,0
1638713735.122,-79.590,-27.344,-51.270,-396.484,0.000,0
1638713735.126,-229.004,-33.691,-57.617,-475.586,0.000,0
1638713735.130,-139.160,-29.297,-76.660,-446.777,0.000,0
1638713735.134,80.566,-20.020,-63.965,-321.289,0.000,0
1638713735.138,109.863,-22.949,-72.266,-289.062,0.000,0
1638713735.141,-76.660,-22.461,-69.824,-392.090,0.000,0
1638713735.146,-232.422,-8.301,-61.035,-471.680,0.000,0
1638713735.150,-153.809,-8.789,-56.641,-429.688,0.000,0
1638713735.154,63.477,-20.508,-56.152,-317.383,0.000,0
1638713735.158,122.559,-21.484,-66.895,-277.832,0.000,0
1638713735.162,-54.199,-22.461,-67.383,-377.441,0.000,0
1638713735.165,-223.145,-36.133,-64.453,-471.680,0.000,0
1638713735.169,-161.621,-37.109,-59.082,-437.500,0.000,0
1638713735.173,41.992,-33.203,-62.012,-334.961,0.000,0
1638713735.177,134.277,-29.297,-69.336,-296.387,0.000,0
1638713735.181,-5.859,-22.949,-57.129,-357.910,0.000,0
1638713735.185,-202.637,-38.574,-47.852,-441.406,0.000,0
1638713735.188,-211.914,-41.992,-74.219,-459.961,0.000,0
1638713735.192,-12.207,-26.367,-82.031,-362.305,0.000,0
1638713735.196,120.605,-27.344,-64.453,-278.320,0.000,0
1638713735.200,-2.441,-30.273,-59.570,-339.844,0.000,0
1638713735.204,-221.191,-33.203,-66.895,-460.938,0.000,0
1638713735.208,-207.031,-34.668,-62.988,-448.242,0.000,0
1638713735.211,11.719,-40.039,-57.129,-327.637,0.000,0
1638713735.215,142.090,-41.504,-64.941,-280.762,0.000,0
1638713735.219,22.949,-29.785,-83.984,-355.957,0.000,0
1638713735.223,-204.590,-24.414,-84.961,-463.867,0.000,0
1638713735.227,-226.074,-42.480,-67.871,-464.844,0.000,0
1638713735.231,-46.875,-52.246,-76.660,-380.859,0.000,0
1638713735.234,106.445,-44.434,-86.426,-305.664,0.000,0
1638713735.239,43.457,-36.133,-82.031,-339.355,0.000,0
1638713735.243,-146.973,-37.109,-67.383,-427.246,0.000,0
1638713735.246,-242.188,-43.457,-72.266,-470.703,0.000,0
1638713735.250,-96.191,-36.621,-87.402,-415.527,0.000,0
1638713735.254,105.957,-30.273,-82.031,-298.828,0.000,0
1638713735.258,72.754,-33.691,-68.359,-304.199,0.000,0
1638713735.262,-131.836,-41.992,-59.082,-423.340,0.000,0
1638713735.266,-233.398,-49.316,-70.801,-489.746,0.000,0
1638713735.269,-87.891,-42.969,-71.289,-412.109,0.000,0
1638713735.273,118.164,-37.598,-58.105,-291.992,0.000,0
1638713735.277,83.008,-37.109,-74.707,-325.195,0.000,0
1638713735.281,-137.207,-30.762,-73.730,-433.105,0.000,0
1638713735.285,-236.816,-35.156,-61.523,-479.004,0.000,0
1638713735.289,-104.004,-44.922,-65.918,-420.898,0.000,0
1638713735.293,88.867,-41.016,-71.289,-317.871,0.000,0
1638713735.297,110.352,-26.367,-63.965,-306.152,0.000,0
1638713735.300,-64.453,-33.691,-47.363,-401.855,0.000,0
1638713735.304,-204.590,-51.758,-47.363,-463.867,0.000,0
1638713735.308,-119.629,-46.875,-62.012,-411.133,0.000,0
1638713735.312,90.332,-30.273,-71.777,-314.453,0.000,0
1638713735.316,156.738,-31.738,-50.293,-270.996,0.000,0
1638713735.320,-49.805,-44.434,-53.223,-376.465,0.000,0
1638713735.324,-237.793,-40.527,-77.637,-492.188,0.000,0
1638713735.327,-140.625,-33.203,-63.477,-437.012,0.000,0
1638713735.332,70.312,-35.645,-58.594,-324.707,0.000,0
1638713735.335,128.418,-32.227,-71.777,-301.270,0.000,0
1638713735.339,-37.109,-29.297,-70.801,-396.973,0.000,0
1638713735.343,-209.961,-36.621,-59.082,-473.633,0.000,0
1638713735.347,-167.969,-35.156,-62.500,-442.383,0.000,0
1638713735.351,45.410,-27.344,-63.477,-336.426,0.000,0
1638713735.355,143.066,-37.598,-60.059,-288.574,0.000,0
1638713735.358,-9.277,-37.598,-59.082,-365.723,0.000,0
1638713735.362,-195.801,-39.062,-53.711,-455.078,0.000,0
1638713735.366,-197.266,-47.852,-77.637,-476.074,0.000,0
1638713735.370,-2.441,-41.016,-85.938,-386.719,0.000,0
1638713735.374,150.879,-38.574,-66.406,-288.086,0.000,0
1638713735.378,37.598,-38.086,-58.105,-347.656,0.000,0
1638713735.382,-187.500,-36.133,-64.941,-479.980,0.000,0
1638713735.386,-209.473,-42.480,-64.941,-486.328,0.000,0
1638713735.389,-13.672,-48.828,-65.430,-371.582,0.000,0
1638713735.393,131.836,-44.922,-68.359,-297.852,0.000,0
1638713735.397,42.480,-39.551,-56.152,-342.773,0.000,0
1638713735.401,-164.062,-41.992,-62.012,-453.125,0.000,0
1638713735.405,-201.172,-45.410,-55.176,-464.355,0.000,0
1638713735.409,-22.949,-40.527,-60.059,-371.582,0.000,0
1638713735.412,125.000,-33.691,-90.332,-309.082,0.000,0
1638713735.416,73.242,-26.855,-74.707,-330.566,0.000,0
1638713735.420,-135.742,-31.738,-63.477,-441.406,0.000,0
1638713735.424,-215.820,-44.922,-71.289,-488.770,0.000,0
1638713735.428,-62.012,-43.457,-78.613,-406.738,0.000,0
1638713735.432,124.512,-39.551,-75.684,-296.875,0.000,0
1638713735.436,92.285,-40.039,-72.266,-307.129,0.000,0
1638713735.440,-118.164,-37.598,-63.965,-422.852,0.000,0
1638713735.443,-214.355,-41.016,-67.383,-479.980,0.000,0
1638713735.447,-77.637,-43.457,-73.242,-398.438,0.000,0
1638713735.451,123.535,-39.551,-50.293,-274.902,0.000,0
1638713735.455,95.703,-42.480,-75.195,-302.734,0.000,0
1638713735.459,-122.070,-32.715,-98.633,-435.547,0.000,0
1638713735.463,-233.887,-33.691,-77.637,-479.980,0.000,0
1638713735.466,-110.840,-44.434,-71.777,-410.156,0.000,0
1638713735.471,91.797,-35.645,-71.289,-303.223,0.000,0
1638713735.474,117.676,-29.785,-62.500,-279.785,0.000,0
1638713735.478,-60.547,-41.504,-61.035,-371.094,0.000,0
1638713735.482,-218.750,-42.480,-68.848,-450.684,0.000,0
1638713735.486,-122.559,-29.297,-65.918,-412.598,0.000,0
1638713735.490,97.656,-26.367,-62.988,-307.617,0.000,0
1638713735.494,144.531,-34.668,-57.129,-265.137,0.000,0
1638713735.497,-36.133,-44.434,-61.523,-363.770,0.000,0
1638713735.501,-232.910,-40.039,-76.660,-484.863,0.000,0
1638713735.505,-161.133,-34.180,-61.035,-432.129,0.000,0
1638713735.509,59.082,-35.645,-59.082,-312.988,0.000,0
1638713735.513,138.672,-36.133,-66.406,-271.973,0.000,0
1638713735.517,-18.066,-28.320,-59.570,-358.887,0.000,0
1638713735.521,-193.848,-25.879,-45.410,-452.148,0.000,0
1638713735.524,-148.438,-34.668,-52.734,-433.594,0.000,0
1638713735.528,47.852,-35.645,-74.707,-337.891,0.000,0
1638713735.532,146.973,-33.203,-75.684,-281.250,0.000,0
1638713735.536,24.414,-37.598,-62.988,-334.961,0.000,0
1638713735.540,-159.180,-55.664,-51.270,-419.434,0.000,0
1638713735.544,-170.898,-50.781,-60.547,-441.895,0.000,0
1638713735.547,9.766,-29.785,-68.848,-356.934,0.000,0
1638713735.551,150.879,-30.762,-50.781,-266.602,0.000,0
1638713735.555,45.410,-33.691,-47.363,-324.219,0.000,0
1638713735.559,-167.969,-28.320,-53.223,-443.359,0.000,0
1638713735.563,-203.613,-31.738,-52.246,-462.402,0.000,0
1638713735.567,-9.766,-42.480,-63.965,-355.957,0.000,0
1638713735.571,149.902,-43.945,-71.777,-264.648,0.000,0
1638713735.574,44.922,-43.457,-55.664,-316.406,0.000,0
1638713735.578,-171.875,-42.969,-40.039,-428.711,0.000,0
1638713735.582,-195.801,-42.480,-34.668,-425.293,0.000,0
1638713735.586,-31.250,-44.434,-55.176,-337.891,0.000,0
1638713735.590,113.281,-39.062,-75.684,-287.109,0.000,0
1638713735.594,66.406,-28.809,-58.594,-303.711,0.000,0
1638713735.597,-133.789,-39.551,-49.316,-392.578,0.000,0
1638713735.601,-231.445,-49.316,-61.523,-459.961,0.000,0
1638713735.605,-79.102,-37.598,-65.430,-390.137,0.000,0
1638713735.609,126.465,-31.250,-54.199,-271.484,0.000,0
1638713735.613,92.773,-38.574,-62.988,-286.621,0.000,0
1638713735.617,-112.305,-41.992,-70.801,-401.367,0.000,0
1638713735.621,-225.098,-46.387,-63.477,-457.031,0.000,0
1638713735.625,-89.355,-50.293,-62.988,-386.230,0.000,0
1638713735.629,130.859,-34.180,-60.547,-269.531,0.000,0
1638713735.632,114.746,-32.715,-64.941,-265.137,0.000,0
1638713735.636,-93.262,-41.992,-73.242,-395.020,0.000,0
1638713735.640,-213.379,-44.434,-70.312,-469.238,0.000,0
1638713735.644,-99.609,-44.922,-62.500,-391.113,0.000,0
1638713735.648,89.355,-49.316,-68.848,-299.316,0.000,0
1638713735.652,113.770,-46.875,-70.312,-287.109,0.000,0
1638713735.656,-74.707,-42.969,-65.918,-379.395,0.000,0
1638713735.660,-229.980,-47.852,-65.430,-460.938,0.000,0
1638713735.664,-152.344,-44.434,-75.195,-426.758,0.000,0
1638713735.668,69.336,-30.762,-76.172,-317.871,0.000,0
1638713735.671,149.902,-21.484,-53.223,-253.906,0.000,0
1638713735.675,-38.086,-33.203,-48.340,-343.262,0.000,1
1638713735.679,-225.586,-45.898,-68.848,-466.309,0.000,0
1638713735.683,-166.504,-48.340,-72.754,-444.336,0.000,0
1638713735.687,59.082,-43.457,-58.105,-305.176,0.000,0
1638713735.691,142.090,-44.434,-65.430,-252.441,0.000,0
1638713735.694,-42.480,-53.711,-90.820,-372.070,0.000,0
1638713735.698,-214.355,-49.316,-75.684,-455.566,0.000,0
1638713735.703,-169.922,-34.668,-65.918,-416.504,0.000,0
1638713735.706,31.250,-28.320,-64.941,-314.453,0.000,0
1638713735.710,127.930,-22.949,-68.359,-257.812,0.000,0
1638713735.714,0.977,-22.949,-62.012,-317.383,0.000,0
1638713735.718,-184.082,-31.250,-60.547,-417.969,0.000,0
1638713735.722,-197.754,-41.992,-73.242,-433.594,0.000,0
1638713735.726,-7.812,-43.457,-81.055,-343.750,0.000,0
1638713735.729,129.883,-41.992,-75.195,-267.090,0.000,0
1638713735.733,32.227,-52.246,-56.152,-315.918,0.000,0
1638713735.737,-192.871,-50.781,-76.172,-446.289,0.000,0
1638713735.741,-241.211,-41.504,-82.520,-471.680,0.000,0
1638713735.745,-33.203,-41.992,-59.082,-351.562,0.000,0
1638713735.749,128.906,-39.551,-58.594,-265.137,0.000,0
1638713735.753,40.527,-35.645,-70.801,-312.988,0.000,0
1638713735.757,-162.598,-32.715,-68.848,-424.805,0.000,0
1638713735.761,-217.285,-38.574,-64.941,-452.148,0.000,0
1638713735.764,-52.246,-43.457,-68.359,-360.352,0.000,0
1638713735.768,117.676,-38.086,-61.523,-259.277,0.000,0
1638713735.772,66.406,-35.156,-59.570,-280.273,0.000,0
1638713735.776,-126.953,-39.062,-50.781,-374.023,0.000,0
1638713735.780,-213.867,-52.246,-61.523,-420.898,0.000,0
1638713735.784,-93.262,-47.363,-83.984,-386.719,0.000,0
1638713735.787,93.262,-39.551,-74.219,-280.762,0.000,0
1638713735.791,90.332,-41.992,-64.941,-272.949,0.000,0
1638713735.795,-110.352,-37.598,-62.012,-384.277,0.000,0
1638713735.799,-233.398,-33.203,-73.730,-458.496,0.000,0
1638713735.803,-107.422,-31.738,-70.801,-385.742,0.000,0
1638713735.807,90.332,-30.273,-73.730,-275.391,0.000,0
1638713735.811,99.121,-27.832,-76.172,-274.414,0.000,0
1638713735.815,-86.914,-25.879,-60.547,-375.000,0.000,0
1638713735.818,-221.191,-31.250,-55.664,-447.754,0.000,0
1638713735.822,-106.445,-47.363,-59.082,-384.766,0.000,0
1638713735.826,76.660,-50.293,-85.938,-304.688,0.000,0
1638713735.830,104.492,-40.527,-89.355,-289.551,0.000,0
1638713735.834,-62.012,-42.480,-60.547,-351.074,0.000,0
1638713735.838,-227.051,-44.434,-56.152,-433.105,0.000,0
1638713735.842,-150.391,-35.645,-78.613,-417.480,0.000,0
1638713735.846,64.941,-24.414,-87.891,-308.594,0.000,0
1638713735.850,134.766,-28.320,-73.242,-255.371,0.000,0
1638713735.854,-34.668,-39.551,-68.848,-345.215,0.000,0
1638713735.858,-219.238,-40.527,-75.684,-450.684,0.000,0
1638713735.861,-169.922,-43.457,-69.824,-416.504,0.000,0
1638713735.865,51.758,-54.688,-54.199,-287.109,0.000,0
1638713735.869,146.973,-59.082,-67.871,-243.652,0.000,0
1638713735.873,-20.508,-40.527,-87.891,-347.656,0.000,0
1638713735.877,-199.707,-29.297,-72.754,-434.570,0.000,0
1638713735.881,-184.570,-32.227,-72.266,-420.410,0.000,0
1638713735.885,9.277,-39.551,-81.055,-331.055,0.000,0
1638713735.889,135.254,-38.086,-81.543,-263.184,0.000,0
1638713735.892,17.090,-28.320,-65.918,-316.406,0.000,0
1638713735.896,-181.641,-28.320,-62.988,-424.805,0.000,0
1638713735.900,-201.172,-26.855,-74.707,-435.547,0.000,0
1638713735.904,-5.859,-23.926,-72.266,-333.008,0.000,0
1638713735.908,149.902,-22.949,-66.406,-247.070,0.000,0
1638713735.912,50.781,-30.762,-62.988,-301.270,0.000,0
1638713735.915,-157.227,-36.621,-54.199,-414.062,0.000,0
1638713735.919,-202.637,-40.527,-67.383,-440.430,0.000,0
1638713735.923,-18.555,-35.645,-69.824,-354.004,0.000,0
1638713735.927,146.973,-45.410,-61.035,-247.070,0.000,0
1638713735.931,48.340,-44.922,-80.566,-305.176,0.000,0
1638713735.935,-168.945,-24.414,-70.312,-424.316,0.000,0
1638713735.939,-217.773,-32.715,-43.457,-430.664,0.000,0
1638713735.942,-44.922,-40.527,-50.293,-342.773,0.000,0
1638713735.946,110.840,-36.133,-74.219,-270.996,0.000,0
1638713735.950,65.918,-31.250,-65.430,-282.227,0.000,0
1638713735.954,-114.746,-42.969,-40.527,-360.352,0.000,0
1638713735.958,-224.609,-55.664,-54.199,-428.223,0.000,0
1638713735.962,-103.516,-43.945,-72.266,-375.977,0.000,0
1638713735.966,106.934,-32.227,-62.500,-258.789,0.000,0
1638713735.969,113.770,-32.227,-43.457,-243.164,0.000,0
1638713735.973,-102.539,-41.992,-55.664,-365.723,0.000,0
1638713735.977,-240.723,-41.016,-71.777,-458.984,0.000,0
1638713735.982,-96.191,-35.156,-57.129,-373.047,0.000,0
1638713735.986,108.887,-40.039,-59.082,-252.930,0.000,0
1638713735.990,106.445,-48.828,-76.172,-257.812,0.000,0
1638713735.993,-96.191,-53.711,-84.961,-371.094,0.000,0
1638713735.997,-243.164,-50.293,-66.406,-437.012,0.000,0
1638713736.001,-125.000,-44.922,-59.570,-374.512,0.000,0
1638713736.005,84.473,-42.480,-69.336,-264.648,0.000,0
1638713736.009,111.328,-36.621,-70.312,-241.211,0.000,0
1638713736.013,-55.664,-30.273,-51.758,-326.660,0.000,0
1638713736.016,-202.637,-29.785,-41.992,-401.367,0.000,0
1638713736.020,-156.738,-33.691,-70.312,-390.625,0.000,0
1638713736.024,55.176,-27.832,-67.383,-285.156,0.000,0
1638713736.028,140.625,-30.762,-60.059,-226.562,0.000,0
1638713736.032,-40.527,-35.645,-74.707,-321.289,0.000,0
1638713736.036,-226.074,-34.180,-79.590,-440.918,0.000,0
1638713736.040,-175.781,-34.668,-75.684,-432.129,0.000,0
1638713736.044,42.480,-34.180,-65.918,-311.035,0.000,0
1638713736.048,145.508,-36.621,-65.918,-245.117,0.000,0
1638713736.052,-17.578,-41.504,-77.148,-332.031,0.000,0
1638713736.055,-223.633,-43.457,-80.078,-440.918,0.000,0
1638713736.059,-193.848,-46.387,-64.453,-423.828,0.000,0
1638713736.063,1.953,-51.758,-74.219,-330.566,0.000,0
1638713736.067,128.418,-39.551,-75.195,-257.812,0.000,0
1638713736.071,20.020,-33.203,-54.199,-300.293,0.000,0
1638713736.075,-168.457,-45.410,-46.387,-385.254,0.000,0
1638713736.079,-197.754,-45.410,-66.895,-405.273,0.000,0
1638713736.083,-25.391,-33.203,-87.891,-343.262,0.000,0
1638713736.087,141.113,-27.832,-77.148,-252.441,0.000,0
1638713736.090,43.945,-31.738,-74.219,-294.922,0.000,0
1638713736.094,-170.898,-38.086,-74.219,-408.691,0.000,0
1638713736.098,-221.680,-47.852,-78.125,-446.777,0.000,0
1638713736.102,-38.086,-46.875,-79.102,-352.539,0.000,0
1638713736.106,145.996,-46.875,-71.777,-243.164,0.000,0
1638713736.110,64.453,-39.551,-71.777,-293.457,0.000,0
1638713736.114,-156.250,-26.855,-62.012,-415.527,0.000,0
1638713736.117,-224.121,-30.762,-55.664,-434.570,0.000,0
1638713736.122,-59.082,-33.203,-61.523,-336.914,0.000,0
1638713736.125,116.699,-32.227,-71.777,-247.559,0.000,0
1638713736.129,77.637,-40.039,-75.684,-270.508,0.000,0
1638713736.133,-117.676,-50.781,-69.336,-372.559,0.000,0
1638713736.137,-226.562,-47.363,-60.547,-420.410,0.000,0
1638713736.141,-84.961,-43.457,-60.059,-345.703,0.000,0
1638713736.145,109.863,-44.922,-66.895,-277.344,0.000,0
1638713736.149,118.652,-40.527,-48.828,-282.715,0.000,0
1638713736.152,-85.938,-45.898,-53.223,-391.113,0.000,0
1638713736.156,-243.652,-46.387,-79.102,-500.000,0.000,0
1638713736.160,-111.328,-44.434,-70.312,-443.848,0.000,0
1638713736.164,99.609,-44.922,-66.406,-346.191,0.000,0
1638713736.168,104.980,-41.504,-66.406,-343.262,0.000,0
1638713736.172,-85.938,-40.039,-62.500,-451.172,0.000,0
1638713736.176,-217.285,-43.945,-62.012,-539.062,0.000,0
1638713736.180,-130.371,-48.828,-67.383,-494.141,0.000,0
1638713736.184,77.637,-39.551,-67.383,-380.371,0.000,0
1638713736.187,141.602,-32.227,-61.035,-339.844,0.000,0
1638713736.191,-39.551,-38.574,-59.570,-441.406,0.000,0
1638713736.195,-200.195,-44.922,-44.922,-517.090,0.000,0
1638713736.199,-150.391,-45.898,-62.988,-496.094,0.000,0
1638713736.203,48.340,-29.297,-71.289,-401.367,0.000,0
1638713736.207,138.184,-31.738,-48.340,-337.891,0.000,0
1638713736.210,-24.414,-43.457,-62.988,-432.129,0.000,0
1638713736.215,-218.750,-37.109,-81.543,-543.945,0.000,0
1638713736.218,-180.176,-32.227,-64.453,-513.672,0.000,0
1638713736.222,38.574,-39.551,-56.152,-403.320,0.000,0
1638713736.226,136.230,-46.875,-71.289,-367.676,0.000,0
1638713736.230,3.418,-42.969,-66.406,-446.777,0.000,0
1638713736.234,-178.711,-47.363,-52.246,-537.598,0.000,0
1638713736.238,-153.320,-52.734,-45.898,-518.066,0.000,0
1638713736.242,35.156,-55.176,-57.129,-424.316,0.000,0
1638713736.245,137.207,-40.039,-77.637,-379.395,0.000,0
1638713736.249,49.316,-22.461,-58.105,-418.945,0.000,0
1638713736.253,-159.668,-33.691,-50.293,-522.461,0.000,0
1638713736.257,-193.359,-42.969,-58.105,-539.062,0.000,0
1638713736.261,-2.441,-49.316,-62.500,-446.777,0.000,0
1638713736.265,140.625,-53.711,-57.129,-364.746,0.000,0
1638713736.269,47.852,-51.758,-57.129,-403.809,0.000,0
1638713736.273,-173.828,-55.664,-67.383,-522.461,0.000,0
1638713736.276,-228.027,-47.852,-64.453,-541.504,0.000,0
1638713736.280,-36.133,-46.387,-58.594,-438.965,0.000,0
1638713736.284,144.043,-52.734,-57.129,-340.820,0.000,0
1638713736.288,73.242,-44.434,-67.871,-379.395,0.000,0
1638713736.292,-149.414,-43.945,-73.730,-506.836,0.000,0
1638713736.296,-221.191,-51.270,-62.500,-534.180,0.000,0
1638713736.299,-76.660,-55.176,-62.988,-456.543,0.000,0
1638713736.303,98.633,-49.805,-75.195,-373.047,0.000,0
1638713736.308,88.379,-39.062,-71.289,-381.348,0.000,0
1638713736.312,-105.957,-40.039,-59.082,-471.191,0.000,0
1638713736.316,-227.539,-40.527,-57.617,-520.508,0.000,0
1638713736.320,-102.051,-39.062,-72.754,-465.820,0.000,0
1638713736.324,107.910,-36.133,-74.707,-373.047,0.000,0
1638713736.327,129.883,-39.551,-51.270,-351.562,0.000,0
1638713736.331,-83.008,-57.129,-58.105,-458.008,0.000,0
1638713736.335,-243.164,-53.223,-82.031,-561.523,0.000,0
1638713736.339,-105.957,-36.621,-68.848,-493.164,0.000,0
1638713736.343,108.398,-34.180,-64.453,-363.281,0.000,0
1638713736.347,122.559,-36.133,-73.242,-345.703,0.000,0
1638713736.350,-56.152,-25.879,-66.406,-439.941,0.000,0
1638713736.355,-191.406,-19.531,-46.387,-498.535,0.000,0
1638713736.359,-107.422,-25.391,-42.969,-454.590,0.000,0
1638713736.363,97.656,-26.855,-58.105,-356.445,0.000,0
1638713736.366,151.855,-19.531,-54.688,-307.129,0.000,0
1638713736.370,-19.531,-26.855,-43.457,-388.672,0.000,0
1638713736.374,-182.129,-44.434,-45.410,-476.074,0.000,0
1638713736.378,-138.184,-49.316,-57.129,-452.637,0.000,0
1638713736.382,65.918,-44.434,-62.012,-366.699,0.000,0
1638713736.386,164.062,-36.621,-58.105,-312.988,0.000,0
1638713736.390,-3.418,-35.156,-55.664,-387.695,0.000,0
1638713736.393,-204.102,-38.086,-53.223,-498.535,0.000,0
1638713736.397,-180.176,-43.945,-65.918,-491.211,0.000,0
1638713736.402,40.527,-44.434,-57.129,-362.305,0.000,0
1638713736.405,170.410,-42.969,-43.945,-281.250,0.000,0
1638713736.409,10.742,-41.504,-66.895,-392.090,0.000,0
1638713736.413,-199.219,-36.133,-62.988,-498.047,0.000,0
1638713736.417,-178.223,-31.738,-50.781,-468.262,0.000,0
1638713736.421,36.133,-27.344,-45.898,-368.164,0.000,1
1638713736.425,152.344,-31.250,-50.293,-317.383,0.000,0
1638713736.428,41.016,-26.367,-53.711,-379.883,0.000,0
1638713736.432,-131.836,-20.996,-26.367,-457.520,0.000,0
1638713736.436,-165.039,-37.109,-26.367,-464.844,0.000,0
1638713736.440,-19.043,-47.852,-67.871,-416.992,0.000,0
1638713736.444,135.254,-44.434,-67.871,-331.543,0.000,0
1638713736.448,66.895,-39.551,-58.105,-356.934,0.000,0
1638713736.452,-134.766,-28.320,-59.570,-468.750,0.000,0
1638713736.456,-207.520,-21.484,-62.012,-499.023,0.000,0
1638713736.460,-37.109,-35.156,-58.105,-406.738,0.000,0
1638713736.464,143.555,-44.434,-53.223,-311.035,0.000,0
1638713736.467,91.797,-47.852,-50.293,-331.055,0.000,0
1638713736.471,-106.445,-50.781,-41.992,-425.781,0.000,0
1638713736.475,-201.172,-44.434,-37.109,-474.121,0.000,0
1638713736.479,-62.012,-49.316,-44.434,-412.598,0.000,0
1638713736.483,107.422,-55.176,-74.707,-344.238,0.000,0
1638713736.487,95.215,-44.434,-76.172,-346.191,0.000,0
1638713736.491,-94.238,-48.828,-52.734,-421.875,0.000,0
1638713736.495,-227.051,-68.359,-52.246,-489.746,0.000,0
1638713736.499,-110.840,-68.359,-66.406,-439.941,0.000,0
1638713736.502,96.191,-58.105,-68.848,-335.938,0.000,0
1638713736.506,121.582,-54.199,-54.688,-324.707,0.000,0
1638713736.510,-68.848,-48.340,-40.527,-415.039,0.000,0
1638713736.514,-204.102,-39.062,-36.133,-472.656,0.000,0
1638713736.518,-106.934,-41.016,-53.223,-427.734,0.000,0
1638713736.522,110.352,-52.246,-40.039,-300.781,0.000,0
1638713736.526,149.414,-54.688,-35.645,-272.949,0.000,0
1638713736.529,-56.641,-45.898,-64.941,-402.832,0.000,0
1638713736.533,-203.613,-45.410,-57.129,-478.516,0.000,0
1638713736.537,-125.488,-52.246,-60.059,-430.176,0.000,0
1638713736.541,77.637,-41.992,-68.848,-330.566,0.000,0
1638713736.545,149.414,-38.086,-62.012,-290.039,0.000,0
1638713736.549,-7.324,-46.875,-58.105,-358.887,0.000,0
1638713736.553,-185.059,-53.223,-56.152,-438.965,0.000,0
1638713736.557,-145.996,-51.270,-56.641,-420.898,0.000,0
1638713736.561,65.918,-47.363,-56.641,-313.477,0.000,0
1638713736.564,165.527,-45.410,-56.641,-245.117,0.000,0
1638713736.568,5.371,-49.805,-59.082,-331.543,0.000,0
1638713736.572,-212.891,-51.758,-81.055,-463.379,0.000,0
1638713736.576,-188.965,-44.922,-79.102,-453.613,0.000,0
1638713736.580,36.133,-47.363,-58.594,-328.613,0.000,0
1638713736.584,152.344,-47.363,-62.988,-261.719,0.000,0
1638713736.588,13.184,-45.898,-85.449,-351.074,0.000,0
1638713736.592,-182.617,-42.480,-80.566,-454.102,0.000,0
1638713736.596,-191.895,-42.969,-64.941,-445.312,0.000,0
1638713736.599,-1.465,-40.527,-71.289,-351.562,0.000,0
1638713736.603,143.555,-32.227,-67.871,-270.020,0.000,0
1638713736.607,58.105,-33.691,-53.711,-309.570,0.000,0
1638713736.611,-142.578,-41.504,-42.969,-402.344,0.000,0
1638713736.615,-203.613,-42.969,-54.688,-429.688,0.000,0
1638713736.619,-35.645,-36.621,-78.613,-372.559,0.000,0
1638713736.622,147.461,-31.738,-73.730,-275.391,0.000,0
1638713736.626,72.754,-36.621,-68.359,-298.828,0.000,0
1638713736.630,-139.160,-43.945,-74.219,-418.457,0.000,0
1638713736.634,-219.238,-42.480,-82.520,-468.262,0.000,0
1638713736.638,-56.641,-33.691,-73.242,-373.047,0.000,0
1638713736.642,135.254,-35.645,-67.871,-262.695,0.000,0
1638713736.646,84.961,-38.574,-73.242,-287.598,0.000,0
1638713736.650,-118.164,-38.086,-69.824,-404.785,0.000,0
1638713736.654,-212.402,-42.480,-62.988,-448.242,0.000,0
1638713736.657,-63.477,-45.898,-56.641,-357.910,0.000,0
1638713736.661,118.652,-47.363,-77.148,-277.344,0.000,0
1638713736.665,87.891,-49.805,-86.426,-299.316,0.000,0
1638713736.669,-103.027,-50.781,-56.152,-371.582,0.000,0
1638713736.673,-223.633,-50.781,-54.199,-432.617,0.000,0
1638713736.677,-124.023,-41.992,-79.102,-400.879,0.000,0
1638713736.681,94.727,-31.738,-80.078,-291.504,0.000,0
1638713736.685,133.301,-32.227,-61.035,-260.742,0.000,0
1638713736.688,-61.523,-31.250,-50.293,-360.840,0.000,0
1638713736.692,-219.727,-24.902,-55.664,-448.730,0.000,0
1638713736.696,-120.117,-17.578,-52.246,-395.996,0.000,0
1638713736.700,102.539,-30.762,-42.480,-275.391,0.000,0
1638713736.704,129.395,-38.086,-45.898,-260.254,0.000,0
1638713736.708,-89.844,-28.809,-60.547,-395.020,0.000,0
1638713736.711,-262.207,-23.438,-47.852,-481.445,0.000,0
1638713736.715,-187.012,-28.809,-38.086,-425.781,0.000,0
1638713736.719,5.371,-33.203,-51.758,-338.867,0.000,0
1638713736.723,69.336,-25.879,-54.688,-317.871,0.000,0
1638713736.727,-80.566,-22.461,-37.598,-391.602,0.000,0
1638713736.731,-264.160,-20.996,-30.762,-490.234,0.000,0
1638713736.735,-246.582,-14.648,-35.645,-478.516,0.000,0
1638713736.739,-20.020,-10.742,-33.203,-377.441,0.000,0
1638713736.743,78.125,-11.719,-35.645,-330.078,0.000,0
1638713736.747,-85.449,-26.855,-29.785,-395.020,0.000,0
1638713736.751,-276.367,-38.574,-29.785,-502.441,0.000,0
1638713736.754,-277.344,-33.691,-41.016,-509.766,0.000,0
1638713736.758,-67.871,-24.414,-36.621,-398.438,0.000,0
1638713736.762,71.289,-23.926,-28.320,-316.895,0.000,0
1638713736.766,-79.102,-23.926,-38.574,-402.832,0.000,0
1638713736.770,-286.133,-28.320,-38.086,-525.879,0.000,0
1638713736.774,-279.785,-33.691,-23.438,-505.371,0.000,0
1638713736.778,-76.660,-27.344,-20.508,-391.602,0.000,0
1638713736.782,77.637,-9.277,-19.043,-320.312,0.000,0
1638713736.786,-3.906,8.301,3.906,-347.656,0.000,0
1638713736.790,-232.910,-13.672,-5.859,-462.402,0.000,0
1638713736.793,-285.645,-46.387,-27.344,-486.328,0.000,0
1638713736.797,-99.121,-37.598,-37.598,-402.832,0.000,0
1638713736.801,62.012,-15.137,-40.039,-318.848,0.000,0
1638713736.805,21.484,-20.020,-22.461,-306.641,0.000,0
1638713736.809,-189.941,-24.902,-32.227,-407.715,0.000,0
1638713736.813,-289.062,-28.809,-59.570,-485.352,0.000,0
1638713736.817,-85.938,-27.832,-49.805,-382.812,0.000,0
1638713736.821,112.793,-27.344,-34.668,-255.859,0.000,0
1638713736.825,67.871,-24.902,-44.434,-268.555,0.000,0
1638713736.829,-133.301,-22.949,-65.918,-380.371,0.000,0
1638713736.832,-237.305,-30.762,-62.012,-436.523,0.000,0
1638713736.836,-83.008,-32.227,-59.082,-355.957,0.000,0
1638713736.840,131.836,-28.809,-62.012,-237.793,0.000,0
1638713736.844,125.977,-23.926,-64.453,-231.445,0.000,0
1638713736.848,-73.242,-27.832,-58.594,-332.031,0.000,0
1638713736.852,-194.824,-36.133,-50.293,-385.742,0.000,0
1638713736.856,-93.750,-35.645,-68.848,-347.168,0.000,0
1638713736.859,118.164,-31.738,-73.242,-251.953,0.000,0
1638713736.863,164.551,-24.902,-61.035,-212.402,0.000,0
1638713736.868,-25.391,-25.879,-63.477,-299.316,0.000,0
1638713736.871,-189.941,-32.227,-72.266,-386.719,0.000,0
1638713736.875,-93.262,-31.250,-67.383,-337.402,0.000,0
1638713736.879,126.953,-33.203,-65.430,-220.215,0.000,0
1638713736.883,181.152,-32.715,-70.312,-188.965,0.000,0
1638713736.887,10.254,-27.344,-63.477,-277.344,0.000,0
1638713736.891,-168.457,-25.879,-60.547,-378.906,0.000,0
1638713736.894,-94.238,-31.738,-53.223,-331.055,0.000,0
1638713736.898,112.305,-41.016,-63.965,-221.191,0.000,0
1638713736.902,174.316,-38.086,-82.520,-208.984,0.000,0
1638713736.906,30.273,-31.738,-69.336,-271.973,0.000,0
1638713736.910,-162.109,-38.574,-71.289,-378.418,0.000,0
1638713736.914,-125.488,-44.434,-72.754,-374.023,0.000,0
1638713736.918,83.008,-41.992,-73.242,-263.184,0.000,0
1638713736.922,189.941,-27.344,-65.918,-192.383,0.000,0
1638713736.926,58.105,-25.879,-59.082,-257.812,0.000,0
1638713736.930,-137.695,-39.062,-60.059,-369.629,0.000,0
1638713736.933,-140.137,-47.363,-57.129,-360.840,0.000,0
1638713736.937,55.176,-37.109,-55.664,-248.535,0.000,0
1638713736.941,197.266,-33.691,-55.664,-163.086,0.000,0
1638713736.945,72.266,-40.039,-76.172,-242.676,0.000,0
1638713736.949,-144.531,-32.227,-74.219,-369.629,0.000,0
1638713736.953,-156.250,-28.809,-53.223,-365.723,0.000,0
1638713736.956,44.434,-27.344,-50.293,-262.695,0.000,0
1638713736.961,196.289,-20.020,-50.293,-186.035,0.000,0
1638713736.965,112.305,-17.578,-39.062,-219.727,0.000,0
1638713736.968,-99.121,-27.344,-40.527,-327.637,0.000,0
1638713736.972,-167.969,-36.621,-62.500,-382.812,0.000,0
1638713736.976,4.395,-34.180,-64.453,-296.875,0.000,0
1638713736.980,186.035,-29.785,-52.734,-185.059,0.000,0
1638713736.984,134.277,-30.273,-35.645,-201.172,0.000,0
1638713736.988,-83.496,-35.645,-32.715,-319.336,0.000,0
1638713736.992,-187.012,-26.367,-53.223,-385.742,0.000,0
1638713736.995,-16.113,-12.207,-37.109,-291.016,0.000,0
1638713736.999,177.734,-6.348,-25.391,-182.129,0.000,0
1638713737.003,140.625,-9.277,-41.504,-203.125,0.000,0
1638713737.007,-59.082,-15.137,-50.293,-312.988,0.000,0
1638713737.011,-166.992,-22.949,-47.363,-375.488,0.000,0
1638713737.015,-51.270,-37.598,-58.105,-315.918,0.000,0
1638713737.019,142.578,-34.180,-62.988,-207.031,0.000,0
1638713737.023,129.883,-28.809,-56.641,-208.008,0.000,0
1638713737.026,-67.383,-37.598,-51.758,-312.988,0.000,0
1638713737.030,-178.223,-46.387,-39.551,-364.746,0.000,0
1638713737.034,-94.727,-38.086,-46.387,-324.707,0.000,0
1638713737.038,107.422,-24.414,-58.105,-246.094,0.000,0
1638713737.042,169.922,-24.414,-46.875,-206.543,0.000,0
1638713737.046,-13.184,-15.137,-37.598,-288.086,0.000,0
1638713737.050,-187.500,-19.043,-41.992,-392.578,0.000,0
1638713737.054,-108.887,-29.297,-43.945,-355.469,0.000,0
1638713737.058,120.117,-16.113,-33.203,-229.004,0.000,0
1638713737.061,188.965,-8.301,-38.086,-195.801,0.000,0
1638713737.065,-6.348,-17.578,-57.129,-295.898,0.000,0
1638713737.069,-190.430,-22.461,-50.293,-384.277,0.000,0
1638713737.073,-108.398,-18.555,-22.461,-323.730,0.000,0
1638713737.077,103.516,-25.391,-24.414,-211.914,0.000,0
1638713737.081,160.156,-32.715,-56.641,-210.938,0.000,0
1638713737.085,11.719,-32.227,-57.617,-301.270,0.000,0
1638713737.088,-165.527,-30.762,-36.621,-378.418,0.000,0
1638713737.092,-162.109,-30.273,-50.293,-379.395,0.000,0
1638713737.096,38.574,-31.250,-67.871,-287.109,0.000,0
1638713737.101,171.875,-31.738,-49.805,-204.590,0.000,0
1638713737.105,40.527,-35.156,-46.875,-275.391,0.000,0
1638713737.109,-170.898,-35.156,-50.781,-387.207,0.000,0
1638713737.112,-174.316,-35.156,-45.410,-387.207,0.000,0
1638713737.116,42.969,-34.668,-47.852,-280.273,0.000,0
1638713737.120,182.129,-27.832,-54.199,-199.219,0.000,0
1638713737.124,63.965,-32.715,-60.547,-263.184,0.000,0
1638713737.128,-136.230,-42.480,-57.129,-379.395,0.000,0
1638713737.132,-173.828,-49.805,-55.664,-400.879,0.000,0
1638713737.135,4.395,-55.176,-55.176,-285.645,0.000,0
1638713737.139,153.320,-55.176,-71.777,-203.613,0.000,0
1638713737.143,73.242,-48.340,-77.148,-256.348,0.000,0
1638713737.148,-119.141,-45.898,-56.152,-346.191,0.000,0
1638713737.151,-185.547,-46.875,-54.199,-373.535,0.000,0
1638713737.155,-23.926,-49.805,-73.730,-312.988,0.000,0
1638713737.159,149.414,-55.176,-84.961,-235.840,0.000,0
1638713737.163,106.934,-60.547,-61.035,-240.723,0.000,0
1638713737.167,-96.191,-74.219,-54.688,-348.633,0.000,0
1638713737.171,-200.684,-68.359,-73.242,-416.016,0.000,0
1638713737.175,-58.594,-47.363,-76.660,-348.145,0.000,0
1638713737.178,139.160,-43.945,-66.406,-231.445,0.000,0
1638713737.182,123.535,-56.641,-69.336,-239.258,0.000,0
1638713737.186,-86.914,-55.664,-77.148,-347.168,0.000,0
1638713737.190,-213.867,-55.176,-70.312,-394.043,0.000,0
1638713737.194,-65.918,-69.336,-59.570,-316.406,0.000,0
1638713737.198,129.395,-77.637,-80.078,-231.445,0.000,0
1638713737.202,115.234,-63.477,-102.051,-248.535,0.000,0
1638713737.206,-69.824,-55.176,-83.984,-341.797,0.000,0
1638713737.210,-186.035,-58.594,-68.848,-401.367,0.000,0
1638713737.214,-70.801,-57.617,-67.383,-335.449,0.000,0
1638713737.217,110.840,-56.152,-77.637,-243.164,0.000,0
1638713737.221,152.344,-52.734,-74.219,-209.961,0.000,0
1638713737.225,-25.391,-49.805,-62.988,-292.969,0.000,0
1638713737.229,-202.637,-56.152,-68.848,-406.738,0.000,0
1638713737.233,-134.277,-61.035,-79.102,-376.465,0.000,0
1638713737.237,92.773,-48.828,-68.848,-248.047,0.000,0
1638713737.241,163.574,-37.109,-56.152,-205.566,0.000,0
1638713737.245,-7.324,-41.016,-74.219,-303.223,0.000,0
1638713737.249,-174.805,-39.551,-77.148,-394.531,0.000,0
1638713737.253,-119.141,-36.621,-64.453,-360.840,0.000,0
1638713737.256,75.684,-43.945,-67.383,-256.348,0.000,0
1638713737.260,156.738,-43.945,-71.777,-208.008,0.000,0
1638713737.264,19.043,-37.109,-66.895,-286.133,0.000,0
1638713737.268,-156.250,-42.969,-52.734,-373.047,0.000,1
1638713737.272,-143.555,-46.387,-60.059,-365.234,0.000,0
1638713737.276,29.297,-42.480,-85.938,-290.039,0.000,0
1638713737.279,158.203,-40.039,-81.055,-220.703,0.000,0
1638713737.283,71.777,-45.410,-53.223,-242.676,0.000,0
1638713737.288,-136.719,-48.828,-58.105,-353.027,0.000,0
1638713737.291,-178.711,-43.945,-83.008,-397.949,0.000,0
1638713737.295,31.250,-30.273,-69.336,-269.531,0.000,0
1638713737.299,189.453,-19.531,-57.129,-181.152,0.000,0
1638713737.303,79.590,-38.086,-68.848,-250.977,0.000,0
1638713737.307,-124.512,-47.852,-67.871,-350.586,0.000,0
1638713737.311,-173.340,-45.898,-60.547,-374.512,0.000,0
1638713737.315,3.906,-50.781,-60.547,-278.809,0.000,0
1638713737.318,157.715,-47.852,-83.496,-211.914,0.000,0
1638713737.322,80.078,-40.039,-93.750,-269.531,0.000,0
1638713737.326,-106.445,-38.574,-64.941,-352.539,0.000,0
1638713737.330,-179.688,-44.922,-62.012,-392.578,0.000,0
1638713737.334,-25.879,-45.410,-81.055,-326.172,0.000,0
1638713737.338,166.504,-38.574,-80.078,-226.074,0.000,0
1638713737.342,148.438,-42.480,-71.777,-218.262,0.000,0
1638713737.346,-66.895,-48.340,-60.547,-317.871,0.000,0
1638713737.350,-178.711,-48.828,-60.547,-379.883,0.000,0
1638713737.353,-22.461,-50.293,-65.918,-290.527,0.000,0
1638713737.357,185.059,-35.156,-49.316,-171.875,0.000,0
1638713737.361,163.574,-26.855,-49.316,-179.688,0.000,0
1638713737.365,-61.035,-36.621,-70.801,-310.059,0.000,0
1638713737.369,-172.852,-38.086,-59.570,-364.258,0.000,0
1638713737.373,-45.898,-38.574,-56.641,-295.898,0.000,0
1638713737.377,149.414,-31.738,-65.430,-206.543,0.000,0
1638713737.381,180.176,-28.320,-62.988,-195.801,0.000,0
1638713737.385,-1.953,-37.598,-52.246,-280.762,0.000,0
1638713737.389,-158.203,-41.504,-52.734,-356.445,0.000,0
1638713737.393,-77.148,-35.156,-64.941,-318.848,0.000,0
1638713737.397,145.996,-26.855,-62.012,-198.242,0.000,0
1638713737.400,204.102,-27.832,-47.363,-163.086,0.000,0
1638713737.404,22.949,-37.598,-42.480,-253.906,0.000,0
1638713737.408,-163.086,-41.504,-62.012,-367.188,0.000,0
1638713737.412,-115.234,-30.273,-68.359,-355.957,0.000,0
1638713737.416,115.234,-28.320,-60.547,-229.980,0.000,0
1638713737.420,204.590,-40.039,-62.012,-179.199,0.000,0
1638713737.424,30.273,-41.504,-63.965,-267.090,0.000,0
1638713737.428,-148.438,-33.203,-61.523,-366.699,0.000,0
1638713737.431,-96.680,-36.621,-49.316,-329.590,0.000,0
1638713737.435,104.492,-37.598,-50.781,-219.727,0.000,0
1638713737.439,194.336,-29.297,-62.012,-174.316,0.000,0
1638713737.443,69.824,-29.297,-61.035,-243.652,0.000,0
1638713737.447,-93.750,-31.250,-40.039,-327.637,0.000,0
1638713737.451,-112.305,-27.832,-37.109,-323.730,0.000,0
1638713737.455,58.105,-20.020,-48.828,-241.699,0.000,0
1638713737.458,197.754,-15.625,-49.805,-184.082,0.000,0
1638713737.462,115.234,-22.949,-33.691,-211.914,0.000,0
1638713737.466,-95.215,-29.297,-33.203,-312.012,0.000,0
1638713737.470,-168.457,-31.738,-66.895,-385.742,0.000,0
1638713737.474,35.645,-25.879,-62.012,-273.926,0.000,0
1638713737.478,203.125,-20.508,-60.059,-172.363,0.000,0
1638713737.482,100.586,-30.762,-72.266,-234.863,0.000,0
1638713737.486,-103.027,-39.062,-58.594,-335.449,0.000,0
1638713737.490,-142.578,-39.062,-50.781,-351.074,0.000,0
1638713737.494,22.949,-41.992,-61.523,-270.020,0.000,0
1638713737.498,189.941,-41.992,-62.988,-181.152,0.000,0
1638713737.501,125.000,-37.109,-67.871,-214.355,0.000,0
1638713737.505,-85.449,-40.527,-66.406,-312.012,0.000,0
1638713737.509,-158.691,-45.410,-58.594,-343.262,0.000,0
1638713737.513,-13.184,-44.922,-78.125,-299.805,0.000,0
1638713737.517,174.805,-39.062,-77.637,-210.449,0.000,0
1638713737.521,164.062,-39.551,-56.641,-212.891,0.000,0
1638713737.525,-30.273,-41.992,-45.410,-326.660,0.000,0
1638713737.529,-144.531,-34.668,-51.758,-396.973,0.000,0
1638713737.533,-14.160,-25.879,-54.199,-334.961,0.000,0
1638713737.537,187.500,-29.785,-58.594,-226.562,0.000,0
1638713737.540,201.172,-40.039,-66.895,-228.516,0.000,0
1638713737.544,-8.789,-38.574,-64.453,-340.332,0.000,0
1638713737.548,-159.180,-43.457,-67.871,-414.062,0.000,0
1638713737.552,-26.855,-43.457,-50.293,-335.449,0.000,0
1638713737.556,179.199,-36.621,-49.805,-229.004,0.000,0
1638713737.560,173.828,-31.738,-72.266,-247.070,0.000,0
1638713737.564,-4.883,-27.832,-49.805,-326.172,0.000,0
1638713737.568,-138.184,-33.203,-42.969,-388.184,0.000,0
1638713737.572,-63.965,-37.109,-61.523,-355.469,0.000,0
1638713737.576,136.719,-34.180,-67.383,-248.535,0.000,0
1638713737.580,207.031,-32.715,-60.059,-209.473,0.000,0
1638713737.583,49.805,-35.156,-54.688,-291.992,0.000,0
1638713737.587,-130.371,-44.434,-57.617,-385.254,0.000,0
1638713737.591,-90.820,-40.527,-58.105,-371.094,0.000,0
1638713737.595,121.582,-32.715,-58.105,-266.113,0.000,0
1638713737.599,206.543,-44.922,-56.152,-201.172,0.000,0
1638713737.603,31.738,-52.246,-68.359,-282.227,0.000,0
1638713737.607,-155.273,-40.039,-61.035,-382.812,0.000,0
1638713737.610,-126.465,-48.340,-58.594,-375.488,0.000,0
1638713737.615,83.496,-55.664,-75.195,-277.344,0.000,0
1638713737.619,198.730,-43.457,-76.172,-209.473,0.000,0
1638713737.622,62.500,-31.250,-63.477,-266.602,0.000,0
1638713737.626,-121.582,-21.973,-53.223,-352.051,0.000,0
1638713737.630,-110.352,-23.438,-55.176,-348.633,0.000,0
1638713737.634,82.031,-36.133,-57.129,-261.230,0.000,0
1638713737.638,192.871,-38.086,-60.547,-200.684,0.000,0
1638713737.642,93.750,-41.504,-49.316,-229.492,0.000,0
1638713737.646,-110.352,-58.594,-61.035,-342.773,0.000,0
1638713737.649,-173.828,-58.594,-86.914,-402.344,0.000,0
1638713737.653,16.113,-49.805,-68.848,-280.273,0.000,0
1638713737.657,185.547,-50.293,-60.059,-186.035,0.000,0
1638713737.661,108.887,-41.504,-63.965,-243.164,0.000,0
1638713737.665,-100.098,-38.574,-62.988,-339.355,0.000,0
1638713737.669,-161.133,-38.086,-59.570,-365.234,0.000,0
1638713737.673,16.113,-42.480,-59.082,-296.875,0.000,0
1638713737.677,189.941,-46.387,-57.129,-214.355,0.000,0
1638713737.681,135.742,-33.691,-53.711,-217.773,0.000,0
1638713737.685,-67.383,-37.109,-55.664,-315.918,0.000,0
1638713737.688,-156.250,-47.363,-48.340,-360.352,0.000,0
1638713737.692,-31.250,-44.922,-70.312,-304.199,0.000,0
1638713737.696,156.738,-26.367,-71.777,-205.078,0.000,0
1638713737.700,162.109,-23.438,-46.387,-183.105,0.000,0
1638713737.704,-41.992,-30.273,-49.316,-291.504,0.000,0
1638713737.708,-182.617,-28.320,-56.641,-361.328,0.000,0
1638713737.712,-55.176,-28.320,-61.523,-291.016,0.000,0
1638713737.716,164.062,-27.344,-58.594,-177.246,0.000,0
1638713737.720,168.457,-26.855,-46.875,-173.340,0.000,0
1638713737.724,-35.156,-31.738,-52.734,-282.227,0.000,0
1638713737.728,-171.387,-39.062,-62.500,-351.074,0.000,0
1638713737.731,-48.828,-47.852,-52.246,-288.086,0.000,0
1638713737.735,145.508,-56.641,-61.035,-197.754,0.000,0
1638713737.739,142.578,-49.316,-89.355,-204.102,0.000,0
1638713737.743,-29.297,-36.621,-76.172,-282.227,0.000,0
1638713737.747,-175.781,-33.691,-54.199,-348.633,0.000,0
1638713737.751,-104.492,-37.598,-49.805,-310.547,0.000,0
1638713737.755,109.375,-42.480,-62.500,-213.867,0.000,0
1638713737.759,194.336,-51.758,-59.082,-174.316,0.000,0
1638713737.763,19.531,-51.270,-55.176,-256.348,0.000,0
1638713737.767,-166.504,-50.293,-68.848,-360.352,0.000,0
1638713737.771,-108.398,-48.828,-63.477,-332.520,0.000,0
1638713737.774,105.957,-47.363,-59.082,-211.426,0.000,0
1638713737.778,192.871,-49.316,-62.988,-160.645,0.000,0
1638713737.782,33.203,-49.805,-72.754,-248.535,0.000,0
1638713737.786,-168.945,-49.805,-86.426,-364.258,0.000,0
1638713737.790,-147.461,-50.293,-77.637,-343.262,0.000,0
1638713737.794,66.406,-57.129,-72.266,-227.051,0.000,0
1638713737.798,182.129,-52.734,-77.637,-185.547,0.000,0
1638713737.802,54.199,-52.246,-81.543,-248.047,0.000,0
1638713737.806,-138.672,-53.223,-66.895,-333.008,0.000,0
1638713737.809,-143.066,-51.270,-53.223,-335.449,0.000,0
1638713737.813,31.250,-53.711,-78.125,-275.879,0.000,0
1638713737.817,186.035,-46.387,-80.566,-197.754,0.000,0
1638713737.821,105.469,-51.758,-60.059,-216.797,0.000,0
1638713737.825,-122.559,-64.941,-68.359,-342.285,0.000,0
1638713737.829,-189.453,-67.383,-90.820,-384.766,0.000,0
1638713737.833,0.488,-63.477,-83.984,-281.250,0.000,0
1638713737.836,196.289,-61.035,-52.734,-149.414,0.000,0
1638713737.840,118.164,-63.477,-57.129,-182.617,0.000,0
1638713737.844,-131.836,-60.547,-87.402,-353.516,0.000,0
1638713737.849,-185.547,-55.176,-74.219,-384.766,0.000,0
1638713737.852,-17.578,-52.734,-72.754,-275.391,0.000,0
1638713737.856,153.809,-44.922,-81.055,-185.059,0.000,0
1638713737.860,109.375,-40.527,-78.125,-209.961,0.000,0
1638713737.864,-104.004,-46.387,-68.848,-317.383,0.000,0
1638713737.868,-196.777,-57.129,-66.406,-364.746,0.000,0
1638713737.872,-54.199,-62.988,-73.242,-296.875,0.000,0
1638713737.876,129.883,-55.664,-81.055,-209.961,0.000,0
1638713737.879,122.559,-34.668,-80.566,-208.008,0.000,0
1638713737.883,-66.895,-33.691,-71.289,-293.457,0.000,0
1638713737.887,-200.195,-52.734,-78.613,-367.188,0.000,0
1638713737.891,-83.496,-54.199,-82.520,-315.430,0.000,0
1638713737.895,140.625,-51.270,-65.430,-191.406,0.000,0
1638713737.899,168.457,-58.105,-53.711,-164.551,0.000,0
1638713737.903,-53.711,-59.082,-75.195,-294.434,0.000,0
1638713737.907,-199.707,-49.805,-73.242,-373.047,0.000,0
1638713737.911,-66.406,-42.480,-52.734,-300.781,0.000,0
1638713737.915,149.414,-41.016,-54.688,-182.129,0.000,0
1638713737.919,158.203,-44.434,-74.219,-180.664,0.000,0
1638713737.922,-37.109,-45.410,-80.566,-300.781,0.000,0
1638713737.926,-165.039,-42.969,-53.223,-352.051,0.000,0
1638713737.930,-89.355,-46.875,-51.758,-311.523,0.000,0
1638713737.934,89.355,-41.992,-82.520,-239.258,0.000,0
1638713737.938,174.316,-31.738,-67.383,-174.316,0.000,0
1638713737.942,20.020,-33.203,-48.828,-241.211,0.000,0
1638713737.946,-162.109,-41.992,-60.059,-335.938,0.000,0
1638713737.950,-131.348,-39.551,-61.035,-316.895,0.000,0
1638713737.954,88.379,-32.227,-50.293,-213.867,0.000,0
1638713737.958,200.684,-31.738,-55.664,-157.715,0.000,0
1638713737.961,46.387,-37.109,-65.430,-242.188,0.000,0
1638713737.965,-149.414,-41.504,-59.082,-333.008,0.000,0
1638713737.969,-139.160,-44.922,-48.340,-315.918,0.000,0
1638713737.973,65.918,-46.875,-37.109,-213.867,0.000,0
1638713737.977,174.805,-43.457,-57.129,-166.992,0.000,0
1638713737.981,45.410,-44.922,-72.266,-236.328,0.000,0
1638713737.985,-146.484,-48.828,-55.176,-321.777,0.000,0
1638713737.989,-159.668,-45.410,-49.805,-330.566,0.000,0
1638713737.993,21.484,-42.969,-62.500,-240.723,0.000,0
1638713737.997,171.875,-36.621,-59.082,-156.250,0.000,0
1638713738.000,91.797,-40.039,-49.805,-204.590,0.000,0
1638713738.004,-118.164,-45.410,-46.875,-323.242,0.000,0
1638713738.008,-166.504,-36.133,-39.062,-332.031,0.000,0
1638713738.012,8.789,-25.879,-44.922,-246.094,0.000,0
1638713738.016,194.336,-33.203,-42.480,-160.156,0.000,0
1638713738.020,122.070,-46.387,-46.387,-180.176,0.000,0
1638713738.024,-112.793,-39.062,-69.336,-316.895,0.000,0
1638713738.027,-166.504,-29.785,-53.223,-350.098,0.000,0
1638713738.031,-2.441,-37.109,-46.387,-265.625,0.000,0
1638713738.036,169.434,-30.273,-47.363,-167.969,0.000,0
1638713738.040,141.113,-13.184,-32.715,-168.457,0.000,0
1638713738.044,-50.781,-6.348,-17.090,-260.254,0.000,0
1638713738.047,-153.320,-5.859,-18.066,-307.617,0.000,0
1638713738.051,-7.812,-5.859,-20.020,-231.934,0.000,0
1638713738.055,196.777,0.977,-15.137,-126.953,0.000,0
1638713738.059,184.570,-4.395,-20.996,-136.719,0.000,0
1638713738.063,1.953,-15.137,-9.766,-223.145,0.000,0
1638713738.067,-127.441,-9.277,-17.090,-299.316,0.000,0
1638713738.071,-29.785,0.488,-32.715,-266.602,0.000,0
1638713738.074,186.035,8.789,-27.832,-138.672,0.000,0
1638713738.078,203.125,12.207,-27.344,-116.211,0.000,0
1638713738.083,-5.859,15.137,-29.785,-230.469,0.000,0
1638713738.086,-151.855,14.648,-29.297,-313.477,0.000,0
1638713738.090,-47.363,15.137,-20.020,-253.906,0.000,0
1638713738.094,167.969,25.391,-21.973,-140.137,0.000,0
1638713738.098,208.496,27.344,-22.949,-124.023,0.000,0
1638713738.102,41.016,-3.906,-18.066,-217.285,0.000,0
1638713738.106,-107.910,-16.113,-22.461,-295.410,0.000,0
1638713738.110,-66.895,0.488,-30.762,-260.742,0.000,0
1638713738.113,124.023,4.395,-39.551,-175.781,0.000,0
1638713738.117,200.684,7.812,-44.434,-140.137,0.000,0
1638713738.121,70.801,-4.395,-26.367,-177.734,0.000,0
1638713738.125,-116.211,-18.066,-24.414,-276.855,0.000,0
1638713738.129,-122.070,-9.277,-51.758,-315.430,0.000,0
1638713738.133,99.121,0.000,-43.457,-196.777,0.000,0
1638713738.137,215.820,-3.418,-41.504,-123.535,0.000,0
1638713738.141,69.824,0.488,-42.480,-199.707,0.000,0
1638713738.145,-131.836,5.859,-29.297,-295.898,0.000,0
1638713738.148,-111.816,-3.418,-22.461,-288.086,0.000,0
1638713738.152,99.609,-17.090,-23.926,-179.199,0.000,0
1638713738.156,204.590,-19.531,-43.945,-134.766,0.000,0
1638713738.160,77.148,-11.719,-53.711,-220.215,0.000,0
1638713738.164,-97.168,-10.254,-33.691,-303.223,0.000,0
1638713738.168,-116.211,-5.859,-18.555,-303.711,0.000,0
1638713738.172,41.504,-9.277,-34.668,-214.355,0.000,0
1638713738.176,186.035,-10.254,-51.270,-136.230,0.000,1
1638713738.180,125.488,-3.906,-37.598,-164.062,0.000,0
1638713738.183,-83.008,-10.254,-31.250,-276.367,0.000,0
1638713738.187,-160.645,-15.137,-39.062,-317.871,0.000,0
1638713738.191,3.418,-23.926,-45.898,-230.469,0.000,0
1638713738.195,200.195,-32.715,-44.922,-118.652,0.000,0
1638713738.199,142.090,-33.203,-45.898,-141.113,0.000,0
1638713738.203,-99.609,-26.855,-57.129,-283.691,0.000,0
1638713738.207,-177.734,-19.043,-48.340,-333.496,0.000,0
1638713738.210,-3.906,-16.113,-31.250,-228.027,0.000,0
1638713738.214,176.758,-18.066,-34.180,-126.465,0.000,0
1638713738.218,135.742,-13.672,-38.086,-152.832,0.000,0
1638713738.223,-54.688,-3.418,-30.762,-244.141,0.000,0
1638713738.226,-162.598,-5.371,-26.855,-295.410,0.000,0
1638713738.230,-43.457,-13.672,-28.809,-240.723,0.000,0
1638713738.234,149.414,-11.230,-39.062,-153.320,0.000,0
1638713738.238,166.504,-12.695,-37.598,-145.020,0.000,0
1638713738.242,-22.461,-19.531,-29.785,-228.027,0.000,0
1638713738.246,-165.039,-18.555,-32.715,-298.828,0.000,0
1638713738.250,-62.012,-20.020,-35.156,-251.953,0.000,0
1638713738.253,143.555,-15.137,-38.086,-150.391,0.000,0
1638713738.257,184.082,-11.719,-36.621,-126.465,0.000,0
1638713738.261,-17.578,-19.043,-50.293,-230.957,0.000,0
1638713738.265,-176.270,-15.137,-51.270,-315.430,0.000,0
1638713738.270,-91.309,-20.996,-39.062,-268.066,0.000,0
1638713738.274,103.027,-28.809,-52.246,-180.176,0.000,0
1638713738.277,164.551,-17.090,-62.500,-153.320,0.000,0
1638713738.281,-2.441,-8.789,-47.852,-227.539,0.000,0
1638713738.285,-174.805,-18.066,-31.738,-306.152,0.000,0
1638713738.289,-125.977,-24.902,-32.227,-281.250,0.000,0
1638713738.293,73.242,-23.926,-50.781,-191.406,0.000,0
1638713738.297,157.227,-20.996,-60.547,-157.715,0.000,0
1638713738.301,32.227,-19.531,-29.785,-208.008,0.000,0
1638713738.304,-156.250,-18.066,-31.250,-295.898,0.000,0
1638713738.308,-166.992,-10.742,-51.270,-315.430,0.000,0
1638713738.312,50.293,-12.207,-50.293,-215.332,0.000,0
1638713738.316,170.410,-14.160,-60.547,-150.391,0.000,0
1638713738.320,27.344,-18.066,-58.105,-205.078,0.000,0
1638713738.324,-174.805,-21.973,-54.199,-316.895,0.000,0
1638713738.328,-172.852,-25.879,-47.852,-325.684,0.000,0
1638713738.332,19.531,-29.297,-50.293,-214.355,0.000,0
1638713738.336,150.879,-28.809,-52.246,-127.441,0.000,0
1638713738.340,40.527,-27.832,-46.875,-182.129,0.000,0
1638713738.343,-161.133,-24.902,-42.480,-298.340,0.000,0
1638713738.347,-198.242,-19.043,-44.922,-322.754,0.000,0
1638713738.351,-27.832,-22.949,-56.152,-246.094,0.000,0
1638713738.355,138.184,-36.133,-65.430,-162.109,0.000,0
1638713738.359,73.730,-44.922,-63.965,-178.223,0.000,0
1638713738.363,-128.906,-41.992,-52.734,-266.602,0.000,0
1638713738.367,-210.449,-35.156,-62.500,-325.684,0.000,0
1638713738.371,-41.016,-21.484,-62.500,-250.488,0.000,0
1638713738.375,155.273,-18.555,-49.805,-141.113,0.000,0
1638713738.379,91.797,-28.809,-51.270,-159.668,0.000,0
1638713738.382,-118.652,-36.621,-48.340,-261.719,0.000,0
1638713738.386,-208.496,-40.527,-47.363,-311.523,0.000,0
1638713738.390,-58.105,-34.180,-39.551,-234.375,0.000,0
1638713738.394,133.301,-38.086,-41.504,-136.230,0.000,0
1638713738.398,90.820,-34.668,-71.777,-172.363,0.000,0
1638713738.402,-102.539,-27.344,-52.734,-267.090,0.000,0
1638713738.406,-212.402,-37.109,-38.086,-317.871,0.000,0
1638713738.410,-85.938,-26.367,-53.223,-263.672,0.000,0
1638713738.414,115.723,-14.648,-54.199,-162.598,0.000,0
1638713738.418,123.047,-24.902,-46.875,-144.531,0.000,0
1638713738.421,-77.637,-29.297,-43.457,-242.188,0.000,0
1638713738.425,-221.680,-25.391,-41.016,-320.801,0.000,0
1638713738.429,-118.652,-28.320,-38.574,-263.184,0.000,0
1638713738.433,88.379,-29.785,-45.410,-159.180,0.000,0
1638713738.437,146.484,-35.645,-37.598,-119.629,0.000,0
1638713738.441,-47.363,-35.156,-47.363,-223.145,0.000,0
1638713738.445,-225.586,-22.461,-51.270,-326.172,0.000,0
1638713738.449,-140.625,-29.785,-36.621,-285.645,0.000,0
1638713738.452,70.312,-41.992,-42.480,-187.988,0.000,0
1638713738.457,123.535,-38.086,-45.898,-150.879,0.000,0
1638713738.460,-35.156,-35.156,-32.715,-219.727,0.000,0
1638713738.464,-206.543,-38.574,-22.949,-306.641,0.000,0
1638713738.468,-170.898,-32.715,-32.715,-299.805,0.000,0
1638713738.472,31.250,-21.484,-49.805,-201.660,0.000,0
1638713738.476,139.160,-22.461,-49.805,-134.766,0.000,0
1638713738.480,29.785,-28.320,-29.785,-179.688,0.000,0
1638713738.484,-169.434,-43.945,-32.715,-282.715,0.000,0
1638713738.487,-202.637,-49.805,-70.312,-320.312,0.000,0
1638713738.491,7.812,-38.086,-67.871,-217.285,0.000,0
1638713738.495,145.508,-36.621,-55.664,-133.789,0.000,0
1638713738.499,23.926,-39.062,-53.711,-202.637,0.000,0
1638713738.503,-187.500,-42.480,-53.711,-314.453,0.000,0
1638713738.507,-197.754,-38.574,-53.223,-317.383,0.000,0
1638713738.511,-0.488,-28.809,-46.387,-210.938,0.000,0
1638713738.515,131.348,-29.297,-58.105,-143.066,0.000,0
1638713738.519,43.457,-29.785,-59.570,-195.312,0.000,0
1638713738.523,-154.297,-34.668,-52.734,-289.062,0.000,0
1638713738.526,-189.941,-51.758,-51.758,-299.316,0.000,0
1638713738.530,-30.273,-57.617,-68.848,-231.934,0.000,0
1638713738.534,109.375,-41.504,-88.379,-171.875,0.000,0
1638713738.538,65.430,-29.297,-67.871,-182.129,0.000,0
1638713738.542,-134.277,-33.691,-51.270,-266.602,0.000,0
1638713738.546,-247.559,-47.852,-72.754,-328.125,0.000,0
1638713738.550,-90.820,-44.434,-83.984,-265.625,0.000,0
1638713738.554,115.234,-44.922,-70.312,-153.809,0.000,0
1638713738.558,74.219,-51.758,-64.453,-168.457,0.000,0
1638713738.561,-134.277,-45.898,-67.871,-285.645,0.000,0
1638713738.565,-231.445,-38.574,-58.594,-343.262,0.000,0
1638713738.569,-76.660,-44.434,-36.621,-248.535,0.000,0
1638713738.573,114.746,-50.293,-46.875,-141.602,0.000,0
1638713738.577,84.473,-42.480,-71.289,-178.711,0.000,0
1638713738.581,-102.051,-41.992,-69.824,-284.180,0.000,0
1638713738.585,-227.539,-51.270,-70.801,-340.820,0.000,0
1638713738.588,-121.582,-44.434,-69.824,-281.250,0.000,0
1638713738.592,83.496,-33.203,-68.359,-176.758,0.000,0
1638713738.597,106.445,-39.062,-71.289,-158.203,0.000,0
1638713738.601,-69.336,-41.992,-63.477,-236.328,0.000,0
1638713738.604,-219.727,-43.945,-70.312,-322.266,0.000,0
1638713738.608,-143.066,-46.387,-85.938,-293.945,0.000,0
1638713738.612,73.242,-40.527,-77.637,-178.223,0.000,0
1638713738.616,134.277,-38.574,-72.266,-149.902,0.000,0
1638713738.620,-42.480,-46.875,-76.660,-242.676,0.000,0
1638713738.624,-221.680,-50.781,-78.613,-332.031,0.000,0
1638713738.628,-150.391,-42.480,-70.801,-294.922,0.000,0
1638713738.631,60.059,-39.062,-70.801,-178.223,0.000,0
1638713738.635,126.953,-37.109,-88.379,-144.531,0.000,0
1638713738.639,-20.020,-33.691,-76.660,-225.586,0.000,0
1638713738.644,-202.148,-37.598,-63.965,-302.734,0.000,0
1638713738.647,-185.059,-41.016,-71.289,-283.203,0.000,0
1638713738.651,15.625,-40.039,-71.289,-189.941,0.000,0
1638713738.655,139.160,-36.133,-67.871,-123.535,0.000,0
1638713738.659,19.043,-37.598,-59.570,-177.246,0.000,0
1638713738.663,-174.316,-43.945,-53.711,-281.738,0.000,0
1638713738.667,-183.594,-55.664,-67.871,-294.922,0.000,0
1638713738.671,8.301,-53.223,-85.449,-210.938,0.000,0
1638713738.674,159.668,-45.410,-63.477,-124.512,0.000,0
1638713738.678,39.551,-57.617,-56.152,-170.898,0.000,0
1638713738.682,-194.336,-60.547,-84.961,-310.547,0.000,0
1638713738.686,-207.520,-51.270,-70.312,-319.336,0.000,0
1638713738.690,-11.719,-48.828,-66.406,-217.773,0.000,0
1638713738.694,130.371,-45.410,-80.078,-146.973,0.000,0
1638713738.698,41.992,-40.527,-83.984,-190.430,0.000,0
1638713738.702,-158.691,-43.457,-76.172,-276.367,0.000,0
1638713738.706,-212.402,-53.711,-69.824,-294.922,0.000,0
1638713738.710,-35.156,-54.199,-71.289,-219.238,0.000,0
1638713738.714,141.602,-46.387,-70.801,-131.836,0.000,0
1638713738.717,88.867,-37.109,-60.547,-153.320,0.000,0
1638713738.721,-114.258,-49.316,-54.199,-249.512,0.000,0
1638713738.725,-223.145,-54.688,-78.613,-313.477,0.000,0
1638713738.729,-85.449,-34.668,-83.984,-263.672,0.000,0
1638713738.733,129.395,-32.715,-64.453,-153.809,0.000,0
1638713738.737,120.117,-36.621,-63.965,-154.297,0.000,0
1638713738.741,-105.957,-43.945,-72.266,-270.020,0.000,0
1638713738.745,-214.355,-40.527,-67.383,-324.219,0.000,0
1638713738.749,-62.500,-29.297,-56.152,-240.723,0.000,0
1638713738.753,125.488,-30.762,-61.523,-145.020,0.000,0
1638713738.756,121.094,-30.273,-62.988,-143.066,0.000,0
1638713738.760,-75.195,-35.156,-59.570,-242.676,0.000,0
1638713738.764,-194.824,-37.598,-51.270,-298.340,0.000,0
1638713738.768,-83.008,-35.156,-57.129,-240.234,0.000,0
1638713738.772,84.473,-34.668,-85.938,-169.922,0.000,0
1638713738.776,117.676,-35.156,-77.637,-146.973,0.000,0
1638713738.780,-57.129,-44.434,-73.242,-232.422,0.000,0
1638713738.784,-221.191,-44.434,-79.102,-319.336,0.000,0
1638713738.788,-133.789,-33.691,-77.148,-286.621,0.000,0
1638713738.792,88.867,-30.273,-68.359,-164.551,0.000,0
1638713738.795,149.902,-30.762,-64.941,-117.676,0.000,0
1638713738.799,-30.762,-31.738,-70.801,-220.215,0.000,0
1638713738.803,-205.566,-29.785,-60.059,-309.082,0.000,0
1638713738.807,-145.996,-33.203,-57.617,-289.551,0.000,0
1638713738.811,77.148,-49.316,-51.758,-172.852,0.000,0
1638713738.815,149.414,-56.152,-74.707,-145.508,0.000,0
1638713738.819,-19.043,-50.293,-87.402,-250.000,0.000,0
1638713738.823,-192.871,-49.805,-69.824,-320.801,0.000,0
1638713738.826,-161.621,-44.922,-64.453,-304.199,0.000,0
1638713738.831,32.715,-32.715,-65.918,-208.496,0.000,0
1638713738.835,152.344,-30.762,-66.406,-135.254,0.000,0
1638713738.839,33.203,-31.250,-56.152,-183.105,0.000,0
1638713738.842,-175.293,-32.715,-58.105,-294.922,0.000,0
1638713738.846,-180.664,-31.250,-60.547,-301.758,0.000,0
1638713738.850,28.320,-26.367,-51.758,-185.059,0.000,0
1638713738.854,174.316,-39.062,-53.711,-108.887,0.000,0
1638713738.858,49.316,-44.434,-63.965,-170.410,0.000,0
1638713738.862,-176.758,-29.785,-71.777,-301.758,0.000,0
1638713738.866,-198.730,-27.344,-66.895,-320.312,0.000,0
1638713738.869,0.488,-35.645,-70.801,-225.586,0.000,0
1638713738.873,160.156,-33.203,-70.801,-146.973,0.000,0
1638713738.878,67.871,-30.762,-67.871,-183.105,0.000,0
1638713738.881,-137.207,-30.762,-53.711,-278.809,0.000,0
1638713738.885,-196.289,-37.109,-56.641,-320.801,0.000,0
1638713738.889,-40.527,-41.992,-73.242,-255.371,0.000,0
1638713738.893,128.418,-40.527,-69.824,-158.691,0.000,0
1638713738.897,96.680,-42.480,-61.035,-155.273,0.000,0
1638713738.901,-110.352,-39.062,-62.988,-260.254,0.000,0
1638713738.905,-214.355,-36.621,-62.988,-319.336,0.000,0
1638713738.908,-67.383,-34.668,-69.336,-243.164,0.000,0
1638713738.912,127.930,-29.297,-65.918,-138.672,0.000,0
1638713738.916,115.723,-39.062,-54.688,-132.812,0.000,0
1638713738.920,-109.375,-42.969,-67.871,-255.859,0.000,0
1638713738.924,-241.699,-33.691,-64.941,-325.195,0.000,0
1638713738.928,-98.145,-42.969,-59.082,-244.629,0.000,0
1638713738.932,109.375,-46.387,-69.336,-149.414,0.000,0
1638713738.936,97.656,-44.922,-79.102,-156.738,0.000,0
1638713738.940,-100.098,-47.363,-75.684,-247.559,0.000,0
1638713738.943,-210.938,-49.316,-54.688,-292.969,0.000,0
1638713738.947,-117.188,-50.293,-52.246,-245.117,0.000,0
1638713738.951,58.594,-43.457,-71.777,-167.480,0.000,0
1638713738.955,119.629,-37.598,-63.965,-138.672,0.000,0
1638713738.959,-52.734,-42.480,-58.594,-224.609,0.000,0
1638713738.963,-241.699,-46.387,-74.219,-324.707,0.000,0
1638713738.967,-178.223,-41.504,-83.008,-302.734,0.000,0
1638713738.971,43.945,-40.527,-72.754,-183.594,0.000,0
1638713738.975,121.582,-47.363,-83.984,-139.648,0.000,0
1638713738.979,-47.852,-50.781,-84.473,-223.633,0.000,0
1638713738.983,-226.562,-45.898,-77.148,-322.266,0.000,0
1638713738.986,-176.758,-40.527,-72.266,-291.016,0.000,0
1638713738.990,40.039,-41.992,-62.012,-178.711,0.000,0
1638713738.994,130.859,-45.898,-79.590,-141.113,0.000,0
1638713738.998,-13.184,-42.969,-85.449,-210.938,0.000,0
1638713739.002,-193.359,-30.762,-72.266,-302.246,0.000,0
1638713739.006,-176.758,-33.691,-64.453,-280.273,0.000,0
1638713739.010,7.812,-37.109,-67.871,-182.617,0.000,0
1638713739.013,134.277,-37.109,-63.477,-129.395,0.000,0
1638713739.018,29.297,-50.781,-68.848,-187.012,0.000,0
1638713739.022,-176.758,-62.988,-83.008,-300.781,0.000,0
1638713739.026,-205.078,-53.223,-87.402,-320.312,0.000,0
1638713739.030,-17.090,-34.180,-84.473,-214.844,0.000,0
1638713739.034,133.789,-36.133,-78.125,-125.977,0.000,0
1638713739.037,45.410,-46.387,-72.266,-172.852,0.000,0
1638713739.041,-173.828,-36.621,-82.031,-300.781,0.000,0
1638713739.045,-231.934,-31.738,-93.750,-336.426,0.000,0
1638713739.049,-18.066,-42.480,-68.359,-208.984,0.000,0
1638713739.053,146.484,-53.223,-57.617,-118.164,0.000,0
1638713739.057,40.039,-52.246,-86.426,-186.035,0.000,0
1638713739.061,-154.785,-46.875,-88.379,-286.621,0.000,0
1638713739.065,-230.957,-51.270,-87.402,-328.125,0.000,0
1638713739.069,-79.102,-41.992,-90.820,-255.859,0.000,0
1638713739.073,120.117,-28.320,-83.008,-160.645,0.000,0
1638713739.076,86.914,-30.273,-78.613,-173.340,0.000,0
1638713739.080,-130.859,-32.715,-71.289,-271.973,0.000,0
1638713739.084,-222.168,-34.180,-68.359,-314.941,0.000,0
1638713739.088,-81.543,-38.086,-78.125,-250.488,0.000,1
1638713739.092,104.980,-36.133,-74.219,-152.832,0.000,0
1638713739.096,90.820,-44.434,-71.777,-155.762,0.000,0
1638713739.100,-124.023,-49.805,-89.844,-275.879,0.000,0
1638713739.104,-245.605,-45.410,-92.285,-349.121,0.000,0
1638713739.107,-128.418,-49.805,-84.473,-281.250,0.000,0
1638713739.112,79.590,-54.199,-73.730,-150.391,0.000,0
1638713739.116,90.820,-53.711,-88.867,-153.809,0.000,0
1638713739.119,-107.910,-45.898,-83.008,-259.766,0.000,0
1638713739.123,-227.051,-47.852,-60.547,-307.129,0.000,0
1638713739.127,-127.930,-52.246,-70.312,-264.648,0.000,0
1638713739.131,82.031,-36.621,-83.984,-171.875,0.000,0
1638713739.135,121.582,-40.039,-92.773,-142.578,0.000,0
1638713739.139,-64.941,-52.734,-83.496,-225.098,0.000,0
1638713739.143,-231.934,-59.570,-79.590,-313.965,0.000,0
1638713739.146,-188.965,-57.129,-104.980,-311.523,0.000,0
1638713739.150,30.762,-48.340,-98.633,-198.730,0.000,0
1638713739.154,117.188,-52.246,-83.008,-139.160,0.000,0
1638713739.158,-48.828,-60.059,-93.262,-225.098,0.000,0
1638713739.162,-235.840,-64.453,-97.656,-330.078,0.000,0
1638713739.166,-187.988,-62.012,-83.008,-306.641,0.000,0
1638713739.170,17.090,-64.941,-83.984,-199.707,0.000,0
1638713739.174,117.676,-72.754,-89.844,-145.996,0.000,0
1638713739.178,-9.277,-73.242,-85.938,-208.496,0.000,0
1638713739.182,-216.309,-79.590,-88.867,-312.500,0.000,0
1638713739.185,-190.430,-80.566,-70.312,-292.969,0.000,0
1638713739.189,12.695,-69.824,-79.102,-209.473,0.000,0
1638713739.193,121.094,-58.105,-89.355,-160.645,0.000,0
1638713739.197,15.137,-59.570,-70.312,-187.988,0.000,0
1638713739.201,-181.152,-63.477,-68.848,-288.574,0.000,0
1638713739.205,-211.914,-58.594,-72.266,-308.594,0.000,0
1638713739.209,-19.043,-52.734,-68.848,-201.660,0.000,0
1638713739.213,134.766,-55.664,-68.848,-121.094,0.000,0
1638713739.217,41.992,-53.711,-67.383,-169.434,0.000,0
1638713739.221,-155.762,-44.922,-58.594,-269.043,0.000,0
1638713739.224,-213.379,-55.176,-63.965,-304.199,0.000,0
1638713739.228,-27.832,-62.500,-64.453,-210.938,0.000,0
1638713739.232,143.555,-57.617,-70.801,-118.164,0.000,0
1638713739.236,43.457,-54.199,-95.215,-178.711,0.000,0
1638713739.240,-151.367,-42.480,-85.938,-276.855,0.000,0
1638713739.244,-219.727,-38.086,-69.336,-303.223,0.000,0
1638713739.248,-69.824,-42.480,-68.848,-235.840,0.000,0
1638713739.252,104.980,-42.480,-81.543,-151.855,0.000,0
1638713739.256,77.637,-39.062,-71.289,-146.484,0.000,0
1638713739.260,-119.141,-37.598,-62.012,-243.164,0.000,0
1638713739.263,-242.188,-44.434,-81.543,-327.148,0.000,0
1638713739.267,-105.957,-46.387,-85.449,-264.160,0.000,0
1638713739.271,104.004,-43.945,-70.801,-137.207,0.000,0
1638713739.275,118.164,-49.805,-58.105,-111.328,0.000,0
1638713739.279,-84.961,-53.711,-77.637,-238.281,0.000,0
1638713739.283,-233.398,-50.293,-87.402,-333.008,0.000,0
1638713739.287,-109.863,-46.387,-60.547,-258.301,0.000,0
1638713739.290,104.980,-42.480,-62.988,-145.020,0.000,0
1638713739.294,129.883,-39.062,-73.242,-125.977,0.000,0
1638713739.298,-60.547,-40.039,-65.430,-217.773,0.000,0
1638713739.302,-200.195,-41.992,-55.176,-290.527,0.000,0
1638713739.306,-111.816,-36.621,-57.129,-242.188,0.000,0
1638713739.310,70.801,-37.109,-78.613,-156.250,0.000,0
1638713739.314,127.441,-35.645,-80.566,-126.953,0.000,0
1638713739.318,-19.531,-33.203,-58.594,-195.312,0.000,0
1638713739.322,-192.383,-49.316,-62.012,-284.668,0.000,0
1638713739.326,-169.922,-51.270,-82.031,-281.250,0.000,0
1638713739.329,46.875,-39.551,-71.289,-180.176,0.000,0
1638713739.333,158.691,-48.340,-63.965,-115.234,0.000,0
1638713739.337,-4.395,-43.457,-73.730,-192.871,0.000,0
1638713739.341,-190.430,-27.344,-72.266,-290.527,0.000,0
1638713739.345,-154.785,-36.133,-59.570,-261.230,0.000,0
1638713739.349,37.109,-37.109,-62.988,-168.457,0.000,0
1638713739.353,141.602,-32.715,-76.172,-124.023,0.000,0
1638713739.357,8.301,-33.691,-72.754,-186.523,0.000,0
1638713739.361,-179.199,-42.969,-61.035,-275.391,0.000,0
1638713739.365,-182.129,-59.082,-62.500,-279.297,0.000,0
1638713739.369,0.977,-55.664,-74.219,-195.312,0.000,0
1638713739.372,140.625,-44.434,-75.684,-129.395,0.000,0
1638713739.376,33.203,-47.363,-69.336,-181.641,0.000,0
1638713739.380,-175.781,-57.617,-74.219,-281.250,0.000,0
1638713739.384,-225.098,-57.129,-90.820,-307.129,0.000,0
1638713739.388,-33.203,-43.457,-87.402,-214.844,0.000,0
1638713739.392,136.230,-44.922,-75.195,-127.441,0.000,0
1638713739.396,54.199,-58.105,-71.289,-168.945,0.000,0
1638713739.400,-155.273,-63.477,-70.801,-279.297,0.000,0
1638713739.404,-222.656,-63.965,-67.871,-309.570,0.000,0
1638713739.408,-51.758,-65.918,-65.918,-214.355,0.000,0
1638713739.412,134.277,-64.453,-69.824,-118.164,0.000,0
1638713739.415,76.660,-59.082,-76.172,-154.785,0.000,0
1638713739.419,-141.602,-55.176,-75.684,-271.973,0.000,0
1638713739.423,-209.473,-52.246,-50.293,-289.062,0.000,0
1638713739.427,-63.477,-53.223,-57.129,-214.844,0.000,0
1638713739.431,94.238,-47.852,-86.426,-155.273,0.000,0
1638713739.435,82.520,-46.387,-71.289,-150.391,0.000,0
1638713739.439,-116.211,-50.781,-62.500,-247.070,0.000,0
1638713739.443,-230.957,-51.758,-63.477,-306.641,0.000,0
1638713739.447,-104.492,-47.363,-65.918,-249.023,0.000,0
1638713739.451,105.469,-45.898,-69.824,-144.043,0.000,0
1638713739.455,116.211,-42.969,-64.453,-126.465,0.000,0
1638713739.459,-87.891,-45.898,-66.406,-225.586,0.000,0
1638713739.462,-228.516,-54.199,-78.613,-309.082,0.000,0
1638713739.466,-120.605,-48.828,-75.195,-258.301,0.000,0
1638713739.470,101.074,-49.805,-61.035,-126.465,0.000,0
1638713739.474,120.605,-51.758,-71.777,-120.117,0.000,0
1638713739.478,-75.195,-36.133,-69.824,-228.516,0.000,0
1638713739.482,-218.750,-40.527,-53.711,-292.969,0.000,0
1638713739.486,-139.648,-43.457,-62.500,-256.348,0.000,0
1638713739.490,55.664,-48.340,-71.777,-154.785,0.000,0
1638713739.494,134.277,-58.594,-67.383,-106.934,0.000,0
1638713739.498,-17.578,-63.477,-57.617,-185.547,0.000,0
1638713739.502,-197.754,-62.012,-51.270,-283.203,0.000,0
1638713739.505,-152.832,-57.129,-53.223,-255.859,0.000,0
1638713739.509,51.758,-61.035,-64.453,-153.320,0.000,0
1638713739.513,150.879,-56.641,-64.453,-112.305,0.000,0
1638713739.517,1.465,-51.758,-69.336,-192.383,0.000,0
1638713739.521,-198.242,-56.152,-71.777,-301.758,0.000,0
1638713739.525,-185.547,-52.734,-71.777,-295.898,0.000,0
1638713739.529,45.898,-41.504,-55.664,-164.062,0.000,0
1638713739.533,151.367,-45.898,-61.035,-109.863,0.000,0
1638713739.537,-13.672,-47.363,-81.543,-205.566,0.000,0
1638713739.541,-179.199,-37.109,-64.453,-274.414,0.000,0
1638713739.544,-188.477,-43.457,-71.777,-283.203,0.000,0
1638713739.548,-7.324,-44.434,-77.637,-207.031,0.000,0
1638713739.552,152.832,-35.645,-71.289,-118.652,0.000,0
1638713739.556,50.293,-40.527,-71.289,-169.434,0.000,0
1638713739.560,-153.809,-50.293,-62.988,-275.391,0.000,0
1638713739.564,-213.379,-56.641,-81.543,-313.965,0.000,0
1638713739.568,-59.570,-46.387,-93.750,-234.863,0.000,0
