timestamps,TP9,AF7,AF8,TP10,Right AUX
1644798744.835,0.000,0.000,0.000,0.000,0.000
1644798744.839,-0.488,-1.465,-0.488,0.000,0.000
1644798744.843,-1.465,-9.766,2.441,-1.465,0.000
1644798744.846,3.906,25.391,-8.789,2.930,0.000
1644798744.850,-19.531,-145.020,27.344,-14.648,0.000
1644798744.854,-35.645,-340.820,34.668,-37.109,0.000
1644798744.858,-9.766,-99.121,-25.879,-32.227,0.000
1644798744.862,-7.812,81.055,-24.414,-15.625,0.000
1644798744.866,-30.762,-133.789,-29.297,-12.207,0.000
1644798744.870,-39.551,-347.656,-34.180,-21.973,0.000
1644798744.873,-12.207,-192.383,-25.879,-20.508,0.000
1644798744.877,-2.930,124.512,-27.344,-28.809,0.000
1644798744.881,-17.090,162.109,-31.738,-13.672,0.000,0
1644798744.885,-32.715,-62.500,-40.527,-24.414,0.000,0
1644798744.889,-45.898,-284.180,-40.527,-55.176,0.000,0
1644798744.892,-32.715,-172.852,-36.133,-52.246,0.000,0
1644798744.896,-13.184,131.348,-41.016,-35.156,0.000,0
1644798744.900,0.977,58.105,-42.969,-33.203,0.000,0
1644798744.904,-10.254,-241.699,-41.992,-18.555,0.000,0
1644798744.908,-37.109,-445.801,-42.969,-11.230,0.000,0
1644798744.912,-26.855,-222.656,-41.992,-35.156,0.000,0
1644798744.915,-2.930,193.848,-37.598,-41.016,0.000,0
1644798744.919,-9.277,327.637,-35.645,-41.992,0.000,0
1644798744.923,-21.484,-419.434,-38.086,-22.949,0.000,0
1644798744.928,-31.250,-765.137,-41.016,-23.926,0.000,0
1644798744.932,-35.156,-86.914,-40.527,-53.711,0.000,0
1644798744.936,-20.508,252.930,-38.086,-32.715,0.000,0
1644798744.940,-10.742,368.164,-35.645,2.441,0.000,0
1644798744.943,-17.090,210.938,-38.574,-8.301,0.000,0
1644798744.947,-29.297,-247.559,-41.992,-35.645,0.000,0
1644798744.951,-20.996,-442.871,-36.621,-53.223,0.000,0
1644798744.955,-5.371,-91.309,-31.738,-45.410,0.000,0
1644798744.959,-8.301,312.988,-31.250,-24.902,0.000,0
1644798744.963,-19.531,207.031,-35.156,-32.715,0.000,0
1644798744.967,-34.180,-144.531,-36.621,-37.598,0.000,0
1644798744.971,-35.645,-103.027,-32.715,-30.762,0.000,0
1644798744.979,-17.578,199.219,-28.809,-26.367,0.000,0
1644798744.983,-6.348,375.977,-22.949,-17.578,0.000,0
1644798744.987,-6.836,285.645,-21.973,-21.973,0.000,0
1644798744.991,-29.785,27.344,-27.832,-19.043,0.000,0
1644798744.995,-44.922,-202.148,-33.691,-24.902,0.000,0
1644798744.999,-35.645,-50.781,-32.227,-56.152,0.000,0
1644798745.003,-21.484,-261.230,-30.762,-35.645,0.000,0
1644798745.007,-19.531,-462.402,-28.809,-3.418,0.000,0
1644798745.011,-34.180,-24.902,-29.785,-19.531,0.000,0
1644798745.015,-25.391,-8.301,-30.273,-39.062,0.000,0
1644798745.019,-11.230,103.027,-26.367,-43.457,0.000,0
1644798745.023,-9.277,390.137,-27.832,-16.602,0.000,0
1644798745.035,-13.184,281.738,-30.273,-3.418,0.000,0
1644798745.039,-27.832,-8.301,-29.297,-4.883,0.000,0
1644798745.044,-33.691,-123.535,-35.156,-17.090,0.000,0
1644798745.048,-18.555,17.578,-44.922,-45.410,0.000,0
1644798745.052,-12.695,277.832,-47.852,-37.598,0.000,0
1644798745.056,-17.578,176.270,-41.504,-20.508,0.000,0
1644798745.060,-31.738,-138.672,-41.992,-20.996,0.000,0
1644798745.064,-51.758,-390.137,-41.992,-20.996,0.000,0
1644798745.069,-46.387,-157.227,-35.645,-39.062,0.000,0
1644798745.073,-19.531,304.199,-30.273,-46.387,0.000,0
1644798745.077,-10.254,374.512,-34.180,-30.273,0.000,0
1644798745.081,-30.273,136.719,-41.504,-25.879,0.000,0
1644798745.096,-45.898,-32.227,-42.480,-30.273,0.000,0
1644798745.100,-31.738,-308.105,-40.527,-38.574,0.000,0
1644798745.105,-15.625,-456.543,-37.598,-36.621,0.000,0
1644798745.109,-12.207,56.152,-35.645,-20.020,0.000,0
1644798745.113,-31.250,140.625,-35.645,-27.832,0.000,0
1644798745.118,-52.246,-243.164,-36.133,-24.902,0.000,0
1644798745.122,-42.480,-222.168,-33.203,0.488,0.000,0
1644798745.127,-23.438,250.000,-28.809,-32.227,0.000,0
1644798745.131,-17.578,411.133,-30.762,-51.758,0.000,0
1644798745.135,-24.414,278.809,-33.691,-35.645,0.000,0
1644798745.140,-38.574,-21.973,-36.133,-33.203,0.000,0
1644798745.144,-46.387,-85.449,-39.062,-35.156,0.000,0
1644798745.160,-31.738,181.641,-41.016,-33.691,0.000,1
1644798745.165,-11.230,350.098,-39.062,-25.391,0.000,0
1644798745.169,-13.672,266.113,-35.645,-11.230,0.000,0
1644798745.174,-38.086,-41.504,-38.086,-21.973,0.000,0
1644798745.178,-31.738,-193.359,-39.062,-44.922,0.000,0
1644798745.183,-6.348,-112.305,-35.156,-25.391,0.000,0
1644798745.188,-3.418,-0.488,-33.691,0.977,0.000,0
1644798745.192,-12.207,42.480,-34.668,-2.930,0.000,0
1644798745.197,-18.066,-290.527,-38.086,-10.742,0.000,0
1644798745.201,-25.391,-810.059,-39.062,-17.578,0.000,0
1644798745.206,-25.391,-250.977,-31.250,-46.387,0.000,0
1644798745.210,-17.578,449.707,-28.809,-39.551,0.000,0
1644798745.228,-24.414,392.090,-35.156,-16.602,0.000,0
1644798745.232,-38.086,129.883,-38.086,-16.113,0.000,0
1644798745.237,-46.387,-104.492,-37.598,-21.973,0.000,0
1644798745.242,-27.344,63.965,-34.180,-26.855,0.000,0
1644798745.246,0.000,303.223,-30.273,-16.602,0.000,0
1644798745.251,-10.742,150.879,-29.785,-13.184,0.000,0
1644798745.256,-34.668,-109.375,-31.738,-25.879,0.000,0
1644798745.260,-35.156,-161.133,-26.367,-28.320,0.000,0
1644798745.265,-20.508,30.762,-24.414,-20.996,0.000,0
1644798745.270,-6.348,206.055,-27.344,4.395,0.000,0
1644798745.274,-10.742,206.543,-26.367,-8.301,0.000,0
1644798745.279,-29.297,120.605,-26.855,-34.668,0.000,0
1644798745.297,-38.574,-111.816,-30.273,-47.852,0.000,0
1644798745.302,-23.926,-65.430,-29.785,-45.410,0.000,0
1644798745.306,-14.160,234.863,-26.855,-29.785,0.000,0
1644798745.311,-19.043,311.035,-28.320,-25.879,0.000,0
1644798745.316,-21.484,-501.953,-27.344,-5.371,0.000,0
1644798745.321,-27.344,-860.840,-30.762,-13.184,0.000,0
1644798745.326,-24.902,-320.801,-34.180,-30.273,0.000,0
1644798745.330,-13.184,52.734,-26.855,-7.812,0.000,0
1644798745.335,-15.137,391.113,-26.367,-13.672,0.000,0
1644798745.340,-20.020,336.914,-29.785,-31.738,0.000,0
1644798745.345,-30.273,-34.180,-28.809,-19.531,0.000,0
1644798745.350,-34.668,-106.445,-31.738,-33.203,0.000,0
1644798745.360,-29.297,129.883,-33.691,-53.223,0.000,0
1644798745.365,-25.879,250.000,-34.180,-43.457,0.000,0
1644798745.370,-37.109,221.680,-36.621,-31.250,0.000,0
1644798745.375,-61.523,-18.066,-41.504,-33.691,0.000,0
1644798745.379,-56.152,-100.098,-39.551,-55.664,0.000,0
1644798745.384,-26.855,9.277,-36.133,-60.059,0.000,0
1644798745.389,-27.344,130.371,-35.156,-39.062,0.000,0
1644798745.394,-38.086,192.383,-35.645,-39.551,0.000,0
1644798745.399,-43.945,-31.738,-41.992,-40.039,0.000,0
1644798745.404,-42.969,-192.871,-42.969,-47.852,0.000,0
1644798745.409,-20.508,146.484,-38.574,-52.734,0.000,0
1644798745.413,-13.184,-169.922,-36.133,-11.230,0.000,0
1644798745.417,-27.832,-396.484,-35.156,8.301,0.000,0
1644798745.422,-36.621,-19.531,-36.621,-24.414,0.000,0
1644798745.427,-38.574,-94.238,-37.109,-48.340,0.000,0
1644798745.432,-26.855,34.180,-35.645,-51.758,0.000,0
1644798745.437,-22.949,177.734,-34.668,-54.199,0.000,0
1644798745.442,-31.738,98.633,-30.762,-42.969,0.000,0
1644798745.447,-40.527,-183.594,-28.320,-41.504,0.000,0
1644798745.451,-47.852,-342.773,-30.762,-48.828,0.000,0
1644798745.456,-36.133,-3.906,-32.227,-52.246,0.000,0
1644798745.461,-19.043,382.324,-28.809,-40.527,0.000,0
1644798745.466,-19.531,391.113,-28.320,-23.438,0.000,0
1644798745.471,-40.527,119.141,-33.203,-26.855,0.000,0
1644798745.470,-53.711,-141.602,-37.598,-38.086,0.000,0
1644798745.475,-38.086,-14.160,-36.133,-35.156,0.000,0
1644798745.479,-20.020,297.363,-30.762,-8.301,0.000,0
1644798745.484,-27.344,357.910,-32.715,-24.902,0.000,0
1644798745.489,-44.922,39.062,-39.551,-51.270,0.000,0
1644798745.494,-46.875,-334.473,-38.574,-43.457,0.000,0
1644798745.499,-27.344,-639.160,-34.180,-33.203,0.000,0
1644798745.503,-19.043,-470.703,-37.598,-47.852,0.000,0
1644798745.508,-27.344,251.465,-39.062,-49.316,0.000,0
1644798745.513,-29.297,238.770,-37.598,-45.898,0.000,0
1644798745.518,-41.016,-99.609,-40.527,-41.016,0.000,0
1644798745.523,-32.715,-36.133,-43.457,-46.387,0.000,0
1644798745.517,-10.742,292.480,-40.039,-58.594,0.000,0
1644798745.522,-17.578,368.164,-40.039,-40.527,0.000,0
1644798745.527,-30.762,144.043,-41.992,-27.344,0.000,0
1644798745.532,-41.504,-142.090,-36.621,-25.391,0.000,0
1644798745.536,-35.645,-171.875,-34.180,-25.879,0.000,0
1644798745.541,-17.090,1.465,-32.715,-17.090,0.000,0
1644798745.546,-15.137,58.105,-29.785,-14.160,0.000,0
1644798745.551,-21.484,-42.969,-31.738,-28.809,0.000,0
1644798745.555,-33.203,-151.855,-33.203,-37.598,0.000,0
1644798745.560,-34.180,-176.758,-29.785,-51.758,0.000,0
1644798745.565,-18.555,41.504,-25.391,-32.715,0.000,0
1644798745.570,-20.020,328.125,-26.367,-13.672,0.000,0
1644798745.561,-25.391,352.051,-29.297,-28.320,0.000,0
1644798745.566,-29.785,-298.828,-35.156,-29.785,0.000,0
1644798745.570,-30.762,-890.137,-35.156,-6.348,0.000,0
1644798745.575,-26.367,-114.746,-25.879,-21.973,0.000,0
1644798745.580,-20.020,439.453,-28.809,-37.598,0.000,0
1644798745.584,-14.160,145.996,-34.668,-21.973,0.000,0
1644798745.589,-31.250,-214.355,-39.551,-28.809,0.000,0
1644798745.594,-47.363,-205.566,-40.039,-31.250,0.000,0
1644798745.598,-22.949,168.945,-32.227,-7.812,0.000,0
1644798745.603,-1.953,397.461,-35.156,-3.418,0.000,0
1644798745.608,-14.160,360.352,-36.621,-16.602,0.000,0
1644798745.612,-37.598,98.145,-32.715,-24.902,0.000,0
1644798745.601,-39.551,-192.871,-32.227,-32.715,0.000,0
1644798745.606,-24.414,-102.051,-35.156,-39.551,0.000,0
1644798745.610,-18.066,264.648,-39.551,-30.762,0.000,0
1644798745.615,-23.438,347.168,-37.109,-19.043,0.000,0
1644798745.620,-37.109,4.883,-35.156,-25.879,0.000,0
1644798745.624,-46.875,-402.344,-37.109,-36.133,0.000,0
1644798745.629,-40.527,-309.082,-35.156,-42.969,0.000,0
1644798745.633,-25.391,44.434,-33.203,-36.621,0.000,0
1644798745.638,-22.949,42.969,-34.180,-21.484,0.000,0
1644798745.642,-35.156,-458.496,-32.227,-13.672,0.000,0
1644798745.647,-46.875,-399.902,-27.344,-30.273,0.000,0
1644798745.651,-43.945,152.832,-27.832,-38.574,0.000,0
1644798745.640,-23.926,137.207,-30.762,-16.113,0.000,0
1644798745.644,-20.508,-298.340,-32.227,7.324,0.000,0
1644798745.649,-45.898,-89.355,-33.691,0.977,0.000,0
1644798745.653,-55.664,-8.789,-32.227,-31.738,0.000,0
1644798745.658,-32.227,-391.113,-25.391,-34.180,0.000,0
1644798745.662,-14.648,-435.547,-26.367,-33.691,0.000,0
1644798745.667,-16.602,158.691,-27.832,-19.043,0.000,0
1644798745.671,-26.367,437.500,-28.320,-10.742,0.000,0
1644798745.676,-36.133,-393.066,-40.039,-26.367,0.000,0
1644798745.680,-27.344,-658.203,-40.039,-21.484,0.000,0
1644798745.685,-19.531,319.336,-27.832,-16.602,0.000,0
1644798745.689,-19.043,647.461,-31.250,-20.020,0.000,0
1644798745.676,-17.090,-124.512,-37.598,-20.996,0.000,0
1644798745.680,-35.156,-578.125,-36.133,2.441,0.000,0
1644798745.684,-38.086,64.941,-32.227,-20.996,0.000,0
1644798745.689,-5.859,420.898,-27.344,-52.734,0.000,0
1644798745.693,0.977,-67.871,-29.785,-23.926,0.000,0
1644798745.698,-17.578,-303.711,-36.621,-14.160,0.000,0
1644798745.702,-35.645,-91.309,-39.551,-13.672,0.000,0
1644798745.706,-28.809,-195.312,-37.598,-9.277,0.000,0
1644798745.711,-14.160,-362.305,-30.762,-15.137,0.000,0
1644798745.715,-18.555,113.770,-29.785,-14.160,0.000,0
1644798745.719,-30.762,670.898,-31.250,-4.883,0.000,0
1644798745.724,-39.062,-5.859,-34.180,-12.695,0.000,0
1644798745.712,-37.598,-386.230,-34.180,-39.062,0.000,0
1644798745.716,-28.320,262.207,-31.250,-32.715,0.000,0
1644798745.721,-13.184,630.371,-32.227,-9.277,0.000,0
1644798745.725,-22.461,136.719,-34.180,-19.531,0.000,0
1644798745.729,-46.875,-463.379,-41.016,-37.598,0.000,0
1644798745.733,-44.922,-279.785,-41.992,-50.293,0.000,0
1644798745.738,-30.762,106.445,-35.156,-50.781,0.000,0
1644798745.742,-15.137,19.531,-30.273,-15.625,0.000,0
1644798745.746,-9.277,-64.941,-30.762,-8.789,0.000,0
1644798745.751,-30.762,222.168,-34.668,-36.133,0.000,0
1644798745.755,-47.852,-117.676,-37.598,-38.086,0.000,0
1644798745.759,-32.227,-55.176,-33.691,-30.273,0.000,0
1644798745.749,-18.066,416.992,-32.227,-29.785,0.000,0
1644798745.753,-20.020,516.602,-34.668,-39.551,0.000,0
1644798745.757,-27.832,110.352,-33.691,-44.922,0.000,0
1644798745.762,-37.598,-245.117,-36.133,-46.875,0.000,0
1644798745.766,-33.691,18.555,-33.691,-41.016,0.000,0
1644798745.770,-20.020,236.328,-34.180,-23.438,0.000,0
1644798745.774,-16.113,117.676,-35.156,-18.066,0.000,0
1644798745.779,-27.832,-368.652,-31.250,1.465,0.000,0
1644798745.783,-53.711,-291.992,-28.809,8.301,0.000,0
1644798745.787,-46.387,191.895,-32.715,-6.348,0.000,0
1644798745.791,-13.672,220.215,-35.645,-1.953,0.000,0
1644798745.795,-11.719,289.062,-33.691,-20.020,0.000,0
1644798745.788,-28.320,285.156,-34.668,-51.758,0.000,0
1644798745.792,-35.156,-189.941,-37.109,-55.176,0.000,0
1644798745.796,-24.414,-307.617,-38.086,-42.480,0.000,0
1644798745.800,-10.254,166.504,-34.180,-30.273,0.000,0
1644798745.804,-9.277,410.156,-28.809,-26.367,0.000,0
1644798745.809,-20.020,115.723,-33.203,-19.043,0.000,0
1644798745.813,-34.668,-610.352,-39.062,-24.902,0.000,0
1644798745.817,-33.203,-661.133,-36.133,-40.039,0.000,0
1644798745.821,-20.020,244.141,-32.227,-21.973,0.000,0
1644798745.825,-17.090,461.914,-37.598,-14.160,0.000,0
1644798745.829,-20.020,156.250,-40.039,-38.086,0.000,0
1644798745.834,-36.621,-62.012,-40.039,-36.621,0.000,0
1644798745.825,-40.527,-25.391,-40.039,-24.902,0.000,0
1644798745.829,-16.602,161.621,-35.156,-7.324,0.000,0
1644798745.834,-8.789,240.234,-31.250,7.324,0.000,0
1644798745.838,-21.973,229.980,-37.598,-26.367,0.000,0
1644798745.842,-46.387,-137.207,-36.621,-53.223,0.000,0
1644798745.846,-56.152,-415.527,-34.180,-33.203,0.000,0
1644798745.850,-32.715,-233.887,-34.668,-42.480,0.000,0
1644798745.854,-25.879,126.953,-34.180,-62.012,0.000,0
1644798745.858,-34.668,345.703,-38.574,-55.664,0.000,0
1644798745.862,-44.434,-99.609,-41.016,-44.434,0.000,0
1644798745.867,-41.016,-682.129,-42.480,-39.062,0.000,0
1644798745.871,-25.879,-112.793,-41.992,-46.387,0.000,0
1644798745.865,-20.020,480.469,-38.086,-32.227,0.000,0
1644798745.869,-19.531,200.684,-41.504,-10.254,0.000,0
1644798745.873,-25.879,-108.398,-40.039,-15.137,0.000,0
1644798745.877,-39.062,-93.262,-40.039,-27.832,0.000,0
1644798745.881,-37.598,91.797,-42.480,-18.066,0.000,0
1644798745.885,-25.879,67.383,-39.551,-9.766,0.000,0
1644798745.889,-27.832,-29.297,-35.156,-13.672,0.000,0
1644798745.894,-39.551,-72.266,-33.203,-35.156,0.000,0
1644798745.898,-44.434,-134.766,-32.715,-65.918,0.000,0
1644798745.902,-28.809,-353.516,-34.180,-48.828,0.000,0
1644798745.906,-13.672,-94.727,-38.574,-29.785,0.000,2
1644798745.910,-20.508,436.035,-41.016,-27.832,0.000,0
1644798745.905,-36.621,132.812,-41.504,-23.926,0.000,0
1644798745.909,-55.664,-265.137,-42.969,-25.879,0.000,0
1644798745.913,-37.109,-71.289,-40.039,-27.832,0.000,0
1644798745.917,-7.812,342.773,-28.809,-15.137,0.000,0
1644798745.921,-14.160,266.602,-26.367,-15.625,0.000,0
1644798745.925,-23.438,-162.109,-32.227,-27.832,0.000,0
1644798745.929,-27.832,-395.996,-38.086,-38.574,0.000,0
1644798745.933,-28.320,-245.117,-39.062,-41.016,0.000,0
1644798745.937,-14.160,7.324,-34.180,-23.926,0.000,0
1644798745.941,-3.906,-153.320,-37.109,-11.230,0.000,0
1644798745.945,-22.949,-93.750,-39.551,-0.977,0.000,0
1644798745.949,-45.898,6.836,-33.203,-19.531,0.000,0
1644798745.945,-33.691,-143.066,-28.320,-38.574,0.000,0
1644798745.949,-17.090,113.770,-37.109,-38.574,0.000,0
1644798745.953,-13.672,429.688,-43.457,-39.551,0.000,0
1644798745.957,-15.137,286.621,-38.086,-32.227,0.000,0
1644798745.961,-33.691,-174.316,-31.250,-30.762,0.000,0
1644798745.965,-38.574,-415.527,-33.203,-43.945,0.000,0
1644798745.969,-27.832,-31.738,-36.133,-45.898,0.000,0
1644798745.973,-24.414,428.223,-31.738,-29.297,0.000,0
1644798745.977,-23.438,-98.633,-33.691,-14.648,0.000,0
1644798745.981,-40.039,-570.312,-34.180,-22.949,0.000,0
1644798745.985,-49.316,-83.984,-34.180,-47.852,0.000,0
1644798745.989,-25.391,163.574,-32.715,-25.391,0.000,0
1644798745.986,-10.742,205.566,-36.133,-23.438,0.000,0
1644798745.990,-22.461,147.461,-44.434,-26.367,0.000,0
1644798745.994,-31.738,28.320,-41.504,-12.207,0.000,0
1644798745.998,-33.203,-175.293,-37.109,-42.480,0.000,0
1644798746.002,-13.184,-108.887,-30.762,-44.922,0.000,0
1644798746.006,-1.465,117.188,-32.715,-25.391,0.000,0
1644798746.010,-19.531,125.977,-42.480,-13.184,0.000,0
1644798746.014,-29.785,-185.547,-45.410,-16.602,0.000,0
1644798746.018,-41.016,-625.488,-46.387,-32.715,0.000,0
1644798746.022,-30.273,-102.051,-39.062,-47.852,0.000,0
1644798746.026,-5.859,500.977,-28.320,-41.504,0.000,0
1644798746.030,-19.531,260.742,-26.367,-18.066,0.000,0
1644798746.027,-40.039,-23.438,-31.250,-16.113,0.000,0
1644798746.031,-47.852,-51.270,-39.062,-48.828,0.000,0
1644798746.035,-41.992,89.355,-40.527,-62.500,0.000,0
1644798746.039,-23.438,166.992,-40.527,-45.410,0.000,0
1644798746.043,-21.973,69.824,-37.109,-25.879,0.000,0
1644798746.046,-40.527,-118.164,-39.551,-20.996,0.000,0
1644798746.050,-53.711,-286.621,-43.457,-24.902,0.000,0
1644798746.054,-32.715,-479.980,-42.969,-17.578,0.000,0
1644798746.058,-16.602,-244.141,-41.992,-19.043,0.000,0
1644798746.062,-27.832,420.410,-35.156,-20.996,0.000,0
1644798746.066,-29.785,249.512,-37.598,-24.902,0.000,0
1644798746.070,-42.480,-204.590,-43.945,-50.293,0.000,0
1644798746.069,-42.969,-83.984,-39.551,-39.551,0.000,0
1644798746.073,-26.367,309.082,-34.180,-39.551,0.000,0
1644798746.077,-16.113,301.270,-34.180,-42.969,0.000,0
1644798746.081,-22.949,24.902,-36.621,-21.973,0.000,0
1644798746.085,-43.945,-170.410,-38.086,-37.109,0.000,0
1644798746.089,-32.227,-261.230,-28.320,-38.086,0.000,0
1644798746.093,-11.230,-95.215,-27.832,-19.043,0.000,0
1644798746.097,-13.184,-214.355,-33.691,-21.484,0.000,0
1644798746.101,-28.320,-119.141,-36.621,-10.742,0.000,0
1644798746.105,-47.363,65.430,-42.480,-32.227,0.000,0
1644798746.108,-39.062,-165.527,-43.457,-54.199,0.000,0
1644798746.112,-19.531,10.742,-41.992,-42.480,0.000,0
1644798746.110,-24.414,446.777,-39.551,-42.969,0.000,0
1644798746.114,-34.180,404.297,-35.645,-52.246,0.000,0
1644798746.118,-35.645,-129.883,-36.133,-44.434,0.000,0
1644798746.122,-39.062,-243.652,-39.062,-33.203,0.000,0
1644798746.126,-24.414,145.508,-35.156,-41.504,0.000,0
1644798746.130,-16.602,148.926,-37.598,-25.879,0.000,0
1644798746.134,-21.973,9.277,-40.527,-12.695,0.000,0
1644798746.138,-42.480,-60.059,-36.133,-22.461,0.000,0
1644798746.142,-55.664,-93.750,-31.250,-43.945,0.000,0
1644798746.146,-33.203,146.973,-26.855,-39.551,0.000,0
1644798746.150,-15.137,-142.578,-29.297,-32.715,0.000,0
1644798746.154,-25.391,-239.746,-29.297,-34.180,0.000,0
1644798746.152,-37.109,128.418,-26.855,-36.621,0.000,0
1644798746.156,-27.344,-122.559,-27.832,-45.410,0.000,0
1644798746.160,-16.113,-137.695,-29.785,-46.387,0.000,0
1644798746.163,-10.254,263.184,-31.738,-41.992,0.000,0
1644798746.167,-12.695,354.492,-32.227,-20.996,0.000,0
1644798746.171,-26.855,-106.445,-26.855,-13.672,0.000,0
1644798746.175,-39.551,-755.371,-26.855,-20.020,0.000,0
1644798746.179,-36.621,-426.758,-29.297,-20.020,0.000,0
1644798746.183,-14.648,398.438,-23.926,3.418,0.000,0
1644798746.187,-8.789,294.922,-24.902,1.953,0.000,0
1644798746.191,-27.832,-43.457,-26.367,-27.832,0.000,0
1644798746.195,-40.039,-88.867,-28.320,-42.969,0.000,0
1644798746.195,-22.461,32.227,-33.691,-44.434,0.000,0
1644798746.198,-6.836,90.820,-29.297,-35.645,0.000,0
1644798746.202,-9.277,161.133,-27.832,-23.926,0.000,0
1644798746.206,-27.832,191.895,-37.598,-20.508,0.000,0
1644798746.210,-49.805,-107.422,-43.945,-33.691,0.000,0
1644798746.214,-31.250,-520.508,-37.109,-32.227,0.000,0
1644798746.218,-9.277,-240.723,-26.855,-24.902,0.000,0
1644798746.222,-15.137,369.141,-27.344,-14.160,0.000,0
1644798746.226,-31.738,249.512,-28.809,-31.250,0.000,0
1644798746.230,-46.875,-366.699,-33.691,-43.945,0.000,0
1644798746.234,-43.457,-346.191,-35.645,-34.668,0.000,0
1644798746.237,-30.762,270.020,-40.039,-42.480,0.000,0
1644798746.237,-27.832,353.516,-41.504,-35.645,0.000,0
1644798746.241,-33.691,78.613,-40.527,-26.367,0.000,0
1644798746.245,-48.340,-132.812,-40.039,-33.691,0.000,0
1644798746.249,-48.828,-115.723,-37.598,-35.645,0.000,0
1644798746.253,-32.715,-12.207,-39.062,-23.438,0.000,0
1644798746.257,-25.391,2.441,-39.551,-28.809,0.000,0
1644798746.261,-25.879,-56.152,-41.504,-31.738,0.000,0
1644798746.265,-32.715,-236.328,-42.480,-14.160,0.000,0
1644798746.269,-43.945,-394.043,-40.527,-28.809,0.000,0
1644798746.273,-31.250,-360.840,-39.062,-36.133,0.000,0
1644798746.276,-19.531,208.008,-38.574,-9.277,0.000,0
1644798746.280,-28.809,448.242,-38.574,-10.742,0.000,0
1644798746.281,-33.691,-69.336,-33.691,-29.297,0.000,0
1644798746.284,-35.156,-317.383,-32.227,-41.992,0.000,0
1644798746.288,-26.367,113.770,-31.250,-42.969,0.000,0
1644798746.292,-6.836,445.312,-28.809,-32.715,0.000,0
1644798746.296,-7.324,159.668,-28.320,-5.859,0.000,0
1644798746.300,-28.320,-285.645,-31.250,-6.836,0.000,0
1644798746.304,-34.668,-390.625,-32.227,-38.574,0.000,0
1644798746.308,-19.531,-79.102,-29.297,-36.621,0.000,0
1644798746.312,-8.301,-152.832,-28.320,-6.348,0.000,0
1644798746.315,-13.184,-156.738,-25.879,3.906,0.000,0
1644798746.319,-29.785,196.289,-27.344,-14.648,0.000,0
1644798746.323,-33.691,-123.047,-28.809,-14.648,0.000,0
1644798746.324,-17.090,-117.188,-29.297,-25.879,0.000,0
1644798746.328,-5.371,323.242,-30.762,-29.785,0.000,0
1644798746.331,-6.348,445.312,-25.879,1.465,0.000,0
1644798746.335,-21.973,101.562,-24.414,1.953,0.000,0
1644798746.339,-39.551,-317.871,-31.250,-10.254,0.000,0
1644798746.343,-39.551,-233.398,-37.598,-20.508,0.000,0
1644798746.347,-21.973,79.102,-37.109,-31.250,0.000,0
1644798746.351,-14.648,67.383,-38.086,-21.484,0.000,0
1644798746.355,-31.250,-363.770,-38.086,-8.789,0.000,0
1644798746.359,-52.246,-295.898,-38.086,-47.363,0.000,0
1644798746.362,-44.434,-45.410,-39.551,-75.195,0.000,0
1644798746.366,-20.996,42.480,-40.039,-40.527,0.000,0
1644798746.367,-26.855,289.551,-36.621,-22.949,0.000,0
1644798746.371,-35.645,320.801,-33.691,-28.320,0.000,0
1644798746.375,-41.992,-41.016,-35.645,-28.320,0.000,0
1644798746.379,-41.016,-222.656,-38.574,-36.133,0.000,0
1644798746.382,-18.066,111.816,-37.598,-23.926,0.000,0
1644798746.386,-7.324,229.980,-39.062,-12.695,0.000,0
1644798746.390,-19.043,119.141,-43.457,-24.902,0.000,0
1644798746.394,-33.203,-498.535,-44.434,-11.719,0.000,0
1644798746.398,-31.250,-637.695,-46.387,-15.137,0.000,0
1644798746.402,-20.020,283.203,-41.992,-42.969,0.000,0
1644798746.406,-12.695,484.863,-37.109,-41.504,0.000,0
1644798746.410,-16.113,230.957,-37.109,-32.715,0.000,0
1644798746.411,-32.227,3.418,-38.574,-33.203,0.000,0
1644798746.415,-48.340,-117.676,-41.992,-33.203,0.000,0
1644798746.419,-31.738,54.199,-36.621,-23.438,0.000,0
1644798746.423,-11.719,282.227,-32.715,-14.648,0.000,0
1644798746.427,-20.020,276.855,-36.133,-16.113,0.000,0
1644798746.431,-30.762,-146.484,-38.574,-29.785,0.000,0
1644798746.434,-34.668,-416.016,-37.598,-32.715,0.000,0
1644798746.438,-23.926,-375.977,-38.086,-32.227,0.000,0
1644798746.442,-5.859,195.801,-39.062,-28.320,0.000,0
1644798746.446,-4.395,583.008,-37.598,-20.508,0.000,0
1644798746.450,-24.902,35.645,-37.109,-14.648,0.000,0
1644798746.454,-31.250,-245.605,-39.062,-32.715,0.000,0
1644798746.455,-25.391,187.500,-39.062,-56.641,0.000,0
1644798746.459,-22.949,462.891,-37.598,-33.691,0.000,0
1644798746.462,-32.227,261.230,-37.598,-19.531,0.000,0
1644798746.466,-48.828,9.277,-38.574,-30.762,0.000,0
1644798746.470,-61.523,-131.836,-40.039,-51.270,0.000,0
1644798746.474,-54.199,-55.664,-37.598,-65.430,0.000,0
1644798746.478,-39.062,115.723,-33.691,-47.852,0.000,0
1644798746.482,-37.598,326.172,-34.668,-40.527,0.000,0
1644798746.486,-55.176,350.098,-38.086,-34.180,0.000,0
1644798746.489,-72.266,133.789,-40.039,-42.480,0.000,0
1644798746.493,-58.594,-262.207,-43.457,-54.199,0.000,0
1644798746.497,-46.875,-84.961,-42.480,-24.902,0.000,0
1644798746.498,-54.688,667.480,-38.086,-17.578,0.000,0
1644798746.502,-60.059,379.395,-42.480,-54.688,0.000,0
1644798746.506,-66.406,-121.094,-44.922,-76.172,0.000,0
1644798746.510,-61.035,107.910,-41.016,-79.590,0.000,0
1644798746.514,-44.434,474.121,-36.621,-73.730,0.000,0
1644798746.517,-53.711,363.770,-40.527,-60.547,0.000,0
1644798746.521,-57.617,-294.922,-43.457,-43.945,0.000,0
1644798746.525,-55.176,-500.977,-41.504,-64.453,0.000,0
1644798746.529,-60.059,20.020,-44.434,-87.891,0.000,0
1644798746.533,-43.457,291.016,-43.945,-58.105,0.000,0
1644798746.537,-33.203,361.816,-43.945,-48.828,0.000,0
1644798746.541,-42.969,369.629,-44.434,-60.059,0.000,0
1644798746.543,-55.664,89.844,-43.457,-39.551,0.000,0
1644798746.546,-53.223,-152.344,-43.945,-51.270,0.000,0
1644798746.550,-25.391,93.750,-40.039,-59.082,0.000,0
1644798746.554,-12.207,479.492,-31.738,-26.855,0.000,0
1644798746.558,-15.137,347.168,-29.297,-30.762,0.000,0
1644798746.562,-16.602,-423.340,-37.109,-28.809,0.000,0
1644798746.566,-26.855,-568.359,-36.621,-32.715,0.000,0
1644798746.570,-32.227,209.961,-34.668,-47.852,0.000,0
1644798746.573,-22.949,455.566,-38.086,-40.039,0.000,0
1644798746.577,-17.090,30.762,-36.133,-3.906,0.000,0
1644798746.581,-30.273,-354.492,-29.785,12.207,0.000,0
1644798746.585,-44.434,-208.984,-29.785,-34.668,0.000,0
1644798746.587,-25.391,104.492,-27.832,-45.410,0.000,0
1644798746.591,-15.625,233.398,-26.855,-37.109,0.000,0
1644798746.595,-12.207,263.184,-23.926,-8.301,0.000,0
1644798746.599,-14.160,85.449,-22.949,11.719,0.000,0
1644798746.603,-28.320,-219.727,-27.832,-23.438,0.000,0
1644798746.606,-19.043,-256.348,-23.438,-31.738,0.000,0
1644798746.610,1.953,-0.488,-28.320,-8.789,0.000,0
1644798746.614,0.977,145.508,-37.598,-10.254,0.000,0
1644798746.618,-18.066,-66.895,-38.086,-17.578,0.000,0
1644798746.622,-25.391,-590.332,-37.109,-13.184,0.000,0
1644798746.626,-14.160,-186.035,-31.250,-26.855,0.000,0
1644798746.629,4.395,443.359,-29.297,-22.461,0.000,0
1644798746.632,4.883,233.398,-28.809,4.395,0.000,0
1644798746.636,-9.277,-191.895,-31.738,1.465,0.000,0
1644798746.639,-19.531,-274.902,-29.297,-26.855,0.000,0
1644798746.643,-14.160,20.996,-17.578,-41.504,0.000,0
1644798746.647,-0.977,166.504,-19.531,-28.809,0.000,0
1644798746.651,-3.906,12.207,-25.391,-15.137,0.000,0
1644798746.655,-16.602,-146.484,-24.414,-10.254,0.000,0
1644798746.659,-26.367,-124.512,-24.902,-18.555,0.000,0
1644798746.662,-17.090,-458.496,-28.809,-8.301,0.000,0
1644798746.666,1.465,-325.195,-22.949,11.230,0.000,0
1644798746.670,-5.371,411.133,-25.879,-3.906,0.000,0
1644798746.674,-24.902,227.539,-30.762,-9.277,0.000,0
1644798746.676,-40.527,-214.844,-28.320,-11.230,0.000,0
1644798746.680,-35.645,-113.281,-30.762,-29.297,0.000,0
1644798746.684,-17.090,282.227,-29.297,-20.996,0.000,0
1644798746.688,-6.836,276.855,-29.297,-14.648,0.000,0
1644798746.692,-12.207,-96.680,-31.250,-21.973,0.000,0
1644798746.695,-26.855,-405.762,-30.273,-25.879,0.000,0
1644798746.699,-31.250,-362.305,-28.809,-6.348,0.000,0
1644798746.703,-8.301,-124.023,-26.855,3.906,0.000,0
1644798746.707,1.465,-270.996,-27.832,-6.836,0.000,0
1644798746.711,-16.113,-37.598,-26.367,-15.625,0.000,0
1644798746.715,-26.367,109.863,-29.297,-38.086,0.000,1
1644798746.718,-21.484,-236.816,-27.344,-42.969,0.000,0
1644798746.721,-12.207,-73.730,-23.926,-29.785,0.000,0
1644798746.725,-11.719,291.992,-29.785,-24.414,0.000,0
1644798746.728,-15.137,241.699,-33.203,-27.344,0.000,0
1644798746.732,-23.438,-176.758,-29.785,-18.066,0.000,0
1644798746.736,-27.832,-352.051,-26.367,-19.531,0.000,0
1644798746.740,-9.277,-151.367,-26.855,-16.113,0.000,0
1644798746.744,-2.441,51.758,-26.855,4.395,0.000,0
1644798746.748,-22.949,-318.359,-30.762,-0.488,0.000,0
1644798746.751,-45.410,-652.344,-34.668,-20.508,0.000,0
1644798746.755,-52.734,-156.738,-35.645,-45.410,0.000,0
1644798746.759,-34.668,90.820,-31.738,-49.805,0.000,0
1644798746.763,-19.043,135.254,-26.855,-20.020,0.000,0
1644798746.765,-27.832,190.430,-27.344,-5.859,0.000,0
1644798746.769,-43.457,87.402,-32.227,-15.137,0.000,0
1644798746.773,-45.410,-230.957,-32.227,-32.227,0.000,0
1644798746.777,-31.250,-203.613,-28.320,-38.086,0.000,0
1644798746.781,-24.414,160.645,-28.809,-20.020,0.000,0
1644798746.785,-25.879,90.332,-31.250,0.488,0.000,0
1644798746.788,-31.250,-297.363,-27.832,-4.883,0.000,0
1644798746.792,-44.922,-749.023,-26.367,-27.832,0.000,0
1644798746.796,-40.527,-339.355,-21.973,-36.621,0.000,0
1644798746.800,-24.902,339.355,-18.555,-35.645,0.000,0
1644798746.804,-14.648,161.621,-24.414,-13.672,0.000,0
1644798746.808,-19.531,-115.723,-26.367,-15.137,0.000,0
1644798746.810,-34.180,-133.789,-24.902,-38.574,0.000,0
1644798746.814,-26.855,-23.438,-25.879,-28.809,0.000,0
1644798746.818,-10.742,28.320,-28.809,-4.395,0.000,0
1644798746.821,-13.184,62.988,-31.738,-15.625,0.000,0
1644798746.825,-25.879,76.172,-30.273,-14.648,0.000,0
1644798746.829,-35.645,-285.645,-28.320,-14.648,0.000,0
1644798746.833,-26.367,-673.828,-33.203,-33.691,0.000,0
1644798746.837,-7.812,-416.992,-33.203,-25.391,0.000,0
1644798746.841,-8.301,292.480,-26.367,-20.996,0.000,0
1644798746.844,-22.949,226.562,-28.320,-6.836,0.000,0
1644798746.848,-32.227,-221.191,-30.762,-6.836,0.000,0
1644798746.852,-32.715,-197.266,-28.320,-37.598,0.000,0
1644798746.855,-21.484,173.340,-23.438,-39.551,0.000,0
1644798746.859,-22.461,145.996,-27.344,-36.133,0.000,0
1644798746.863,-30.273,-72.754,-29.297,-34.668,0.000,0
1644798746.867,-44.434,-131.836,-28.320,-32.227,0.000,0
1644798746.871,-50.293,-135.254,-36.133,-49.805,0.000,0
1644798746.875,-27.832,-110.840,-42.480,-39.062,0.000,0
1644798746.878,-15.625,-363.770,-41.992,-6.836,0.000,0
1644798746.882,-26.855,-245.117,-38.574,-11.719,0.000,0
1644798746.886,-45.410,6.348,-36.621,-40.039,0.000,0
1644798746.890,-45.410,-195.312,-33.691,-41.016,0.000,0
1644798746.894,-21.484,-127.441,-36.133,-20.508,0.000,0
1644798746.897,-1.465,231.934,-37.598,-25.879,0.000,0
1644798746.900,-27.832,329.590,-37.109,-50.781,0.000,0
1644798746.904,-52.246,-134.766,-41.504,-48.340,0.000,0
1644798746.908,-55.664,-378.418,-46.387,-46.875,0.000,0
1644798746.911,-46.875,5.371,-41.992,-48.828,0.000,0
1644798746.915,-24.902,176.758,-34.668,-31.738,0.000,0
1644798746.919,-21.973,-67.871,-33.691,-16.602,0.000,0
1644798746.923,-33.203,-380.371,-34.668,-21.973,0.000,0
1644798746.927,-37.598,-329.102,-30.762,-43.945,0.000,0
1644798746.930,-24.902,70.801,-31.738,-46.387,0.000,0
1644798746.934,-2.441,-195.801,-37.598,-32.227,0.000,0
1644798746.938,-14.160,-284.180,-33.203,-20.996,0.000,0
1644798746.942,-41.016,123.047,-34.180,-23.926,0.000,0
1644798746.945,-37.598,-149.414,-34.180,-29.785,0.000,0
1644798746.949,-22.949,-220.703,-26.367,-18.066,0.000,0
1644798746.953,-10.254,141.602,-28.809,-8.789,0.000,0
1644798746.957,-11.230,323.730,-32.227,-11.230,0.000,0
1644798746.961,-31.738,16.113,-34.180,-14.648,0.000,0
1644798746.964,-36.133,-509.277,-36.133,-30.762,0.000,0
1644798746.968,-17.578,-414.062,-28.320,-28.809,0.000,0
1644798746.972,-10.742,13.184,-23.926,-32.715,0.000,0
1644798746.976,-12.695,28.809,-30.762,-53.711,0.000,0
1644798746.980,-16.602,-272.461,-31.738,-41.992,0.000,0
1644798746.984,-33.691,-213.867,-28.809,-40.039,0.000,0
1644798746.987,-35.645,41.992,-32.227,-49.316,0.000,0
1644798746.991,-18.555,61.035,-34.180,-33.691,0.000,0
1644798746.995,-17.578,151.367,-34.668,-21.973,0.000,0
1644798746.998,-35.645,239.746,-40.039,-26.367,0.000,0
1644798747.002,-38.086,-54.199,-41.016,-27.344,0.000,0
1644798747.006,-26.855,-280.273,-40.039,-48.828,0.000,0
1644798747.010,-15.625,-166.992,-41.992,-66.895,0.000,0
1644798747.014,-8.301,83.496,-41.992,-35.645,0.000,0
1644798747.017,-11.719,250.488,-38.086,-22.949,0.000,0
1644798747.021,-27.832,-444.824,-41.016,-24.414,0.000,0
1644798747.025,-39.062,-703.613,-41.992,-38.574,0.000,0
1644798747.029,-19.531,46.875,-34.180,-44.434,0.000,0
1644798747.033,-3.418,149.902,-31.738,-26.367,0.000,0
1644798747.036,-19.043,71.777,-29.297,-29.297,0.000,0
1644798747.040,-40.527,-27.344,-31.250,-31.250,0.000,0
1644798747.044,-43.457,-73.730,-36.621,-26.855,0.000,0
1644798747.048,-20.996,43.457,-38.574,-13.184,0.000,0
1644798747.051,-3.906,106.445,-37.598,-13.184,0.000,0
1644798747.055,-11.719,29.785,-34.668,-7.812,0.000,0
1644798747.059,-30.273,-208.984,-37.109,-12.207,0.000,0
1644798747.063,-38.574,-411.621,-36.133,-41.992,0.000,0
1644798747.067,-20.508,-479.492,-31.738,-49.316,0.000,0
1644798747.070,-14.160,120.117,-29.297,-41.992,0.000,0
1644798747.074,-27.832,490.234,-32.227,-38.574,0.000,0
1644798747.078,-25.879,-28.809,-35.156,-33.691,0.000,0
1644798747.081,-40.527,-261.230,-31.738,-31.250,0.000,0
1644798747.085,-43.457,-31.738,-36.133,-43.945,0.000,0
1644798747.089,-24.414,159.668,-37.598,-46.875,0.000,0
1644798747.093,-22.461,169.922,-33.203,-15.137,0.000,0
1644798747.097,-41.992,-76.660,-35.645,-23.438,0.000,0
1644798747.100,-52.246,-397.949,-43.457,-40.039,0.000,0
1644798747.104,-33.691,-239.746,-41.504,-15.137,0.000,0
1644798747.108,-13.184,-170.898,-37.598,-16.113,0.000,0
1644798747.112,-14.160,-153.809,-34.180,-34.668,0.000,0
1644798747.116,-25.391,224.121,-33.691,-28.809,0.000,0
1644798747.120,-37.598,-41.016,-36.133,-21.484,0.000,0
1644798747.123,-30.762,-154.785,-35.156,-33.691,0.000,0
1644798747.127,-9.277,218.262,-30.762,-37.598,0.000,0
1644798747.131,-12.695,439.453,-31.250,-31.738,0.000,0
1644798747.134,-25.391,158.203,-32.227,-13.184,0.000,0
1644798747.138,-32.227,-245.117,-29.785,-11.719,0.000,0
1644798747.142,-28.320,-182.617,-28.809,-22.949,0.000,0
1644798747.146,-17.090,48.340,-28.320,-12.207,0.000,0
1644798747.150,-17.090,99.609,-26.855,-1.953,0.000,0
1644798747.153,-28.320,-384.766,-28.320,4.883,0.000,0
1644798747.157,-45.410,-451.172,-32.227,-13.672,0.000,0
1644798747.161,-43.945,44.922,-32.715,-34.668,0.000,0
1644798747.165,-26.855,172.363,-33.691,-37.109,0.000,0
1644798747.169,-17.578,253.906,-36.621,-25.879,0.000,0
1644798747.172,-25.391,335.938,-38.086,-17.090,0.000,0
1644798747.176,-44.434,75.684,-38.086,-23.926,0.000,0
1644798747.180,-39.062,-260.254,-38.574,-37.109,0.000,0
1644798747.183,-27.344,0.977,-38.086,-45.898,0.000,0
1644798747.187,-23.926,360.840,-37.109,-31.738,0.000,0
1644798747.191,-21.973,153.320,-36.133,-21.484,0.000,0
1644798747.195,-31.250,-505.371,-35.645,-24.414,0.000,0
1644798747.199,-39.062,-743.164,-36.621,-26.367,0.000,0
1644798747.203,-22.461,33.691,-36.133,-27.832,0.000,0
1644798747.206,-6.348,435.059,-36.133,-22.461,0.000,0
1644798747.210,-19.043,222.168,-33.691,-25.879,0.000,0
1644798747.214,-30.273,-46.875,-36.133,-32.227,0.000,0
1644798747.217,-33.203,-86.914,-41.016,-38.086,0.000,0
1644798747.221,-24.902,76.172,-36.133,-41.504,0.000,0
1644798747.225,-18.066,180.176,-34.180,-38.086,0.000,0
1644798747.229,-27.344,274.414,-35.156,-17.090,0.000,0
1644798747.233,-41.016,58.105,-40.039,-25.391,0.000,0
1644798747.236,-49.316,-371.094,-43.945,-63.965,0.000,0
1644798747.240,-44.434,-587.402,-43.945,-65.918,0.000,0
1644798747.244,-32.227,-110.840,-41.016,-52.734,0.000,0
1644798747.248,-33.203,424.316,-39.062,-42.480,0.000,0
1644798747.252,-32.715,19.531,-38.086,-25.391,0.000,0
1644798747.255,-37.109,-423.340,-35.645,-37.109,0.000,0
1644798747.259,-31.738,-110.840,-36.621,-55.176,0.000,0
1644798747.262,-12.695,381.836,-33.691,-29.785,0.000,0
1644798747.266,-20.020,305.176,-35.156,-21.484,0.000,0
1644798747.270,-44.922,13.184,-37.109,-29.297,0.000,0
1644798747.274,-54.199,-115.723,-34.180,-53.223,0.000,0
1644798747.278,-42.969,-4.395,-32.227,-69.824,0.000,0
1644798747.282,-24.902,-114.746,-43.457,-45.898,0.000,0
1644798747.285,-12.695,-96.191,-45.410,-28.320,0.000,0
1644798747.289,-24.414,187.500,-39.551,-37.598,0.000,0
1644798747.293,-51.270,-72.754,-43.945,-47.363,0.000,0
1644798747.297,-46.387,-321.289,-40.527,-36.133,0.000,0
1644798747.301,-29.297,-39.062,-32.715,-22.461,0.000,0
1644798747.304,-31.250,316.406,-31.250,-23.438,0.000,0
1644798747.308,-35.645,172.363,-34.668,-23.926,0.000,0
1644798747.312,-45.898,-274.414,-38.574,-27.832,0.000,0
1644798747.316,-42.969,-291.992,-38.574,-40.527,0.000,0
1644798747.320,-27.832,234.863,-36.621,-36.621,0.000,0
1644798747.324,-20.996,342.773,-34.668,-24.414,0.000,0
1644798747.327,-26.367,-91.309,-39.551,-30.273,0.000,0
1644798747.331,-36.133,-431.152,-40.039,-37.109,0.000,0
1644798747.335,-34.180,-264.648,-34.668,-40.527,0.000,0
1644798747.339,-32.227,54.199,-32.715,-30.273,0.000,0
1644798747.343,-22.949,13.184,-32.227,-21.973,0.000,0
1644798747.347,-29.785,190.430,-31.738,-22.461,0.000,0
1644798747.350,-44.434,108.398,-32.715,-33.203,0.000,0
1644798747.354,-46.387,-227.051,-35.156,-48.340,0.000,0
1644798747.358,-49.316,16.602,-32.227,-29.297,0.000,0
1644798747.362,-37.598,412.109,-27.832,-8.789,0.000,0
1644798747.366,-24.902,347.168,-29.785,-13.672,0.000,0
1644798747.370,-35.645,-178.223,-34.668,-18.555,0.000,0
1644798747.373,-43.457,-502.930,-35.645,-22.949,0.000,0
1644798747.377,-31.738,-190.430,-36.133,-19.043,0.000,0
1644798747.381,-19.531,190.430,-41.504,-15.625,0.000,0
1644798747.385,-13.672,-133.301,-41.016,-15.625,0.000,0
1644798747.389,-24.902,-512.695,-39.551,-10.742,0.000,0
1644798747.392,-36.621,-92.773,-38.574,-30.273,0.000,0
1644798747.396,-26.367,161.133,-31.738,-47.852,0.000,0
1644798747.400,-18.555,258.301,-28.809,-34.180,0.000,0
1644798747.404,-17.578,325.684,-29.297,-17.090,0.000,0
1644798747.408,-18.555,145.020,-33.203,-20.996,0.000,0
1644798747.412,-27.344,-186.035,-34.668,-36.621,0.000,0
1644798747.415,-21.484,-175.781,-33.691,-40.039,0.000,0
1644798747.419,1.953,83.984,-34.180,-32.715,0.000,0
1644798747.423,-5.859,136.719,-32.715,-10.742,0.000,0
1644798747.427,-35.645,-139.160,-33.691,-0.977,0.000,0
1644798747.431,-31.250,-672.852,-32.715,-4.883,0.000,0
1644798747.434,-20.996,-258.301,-31.250,-21.484,0.000,0
1644798747.438,-8.789,464.844,-32.715,-27.344,0.000,0
1644798747.442,4.395,322.754,-35.645,-8.301,0.000,0
1644798747.446,-6.348,17.090,-35.156,1.465,0.000,0
1644798747.450,-24.902,-51.758,-34.180,-4.395,0.000,0
1644798747.454,-23.926,28.320,-40.527,-21.484,0.000,0
1644798747.457,-10.742,130.859,-40.527,-22.461,0.000,0
1644798747.461,-9.277,158.203,-34.180,-20.508,0.000,0
1644798747.465,-20.020,-58.594,-31.738,-29.297,0.000,0
1644798747.469,-29.785,-282.227,-34.668,-35.645,0.000,0
1644798747.473,-31.250,-556.152,-34.668,-23.438,0.000,0
1644798747.476,-20.020,-358.398,-29.297,-13.672,0.000,0
1644798747.480,-10.742,395.996,-28.320,-13.184,0.000,0
1644798747.484,-12.695,281.250,-32.715,-12.207,0.000,0
1644798747.488,-37.598,-209.961,-35.156,-20.508,0.000,0
1644798747.492,-47.363,-154.297,-30.273,-27.344,0.000,0
1644798747.496,-19.043,285.156,-33.203,-49.316,0.000,0
1644798747.499,1.953,344.727,-37.109,-42.969,0.000,0
1644798747.503,-5.859,81.055,-26.855,-0.488,0.000,0
1644798747.507,-28.320,-128.418,-26.855,-1.465,0.000,0
1644798747.511,-33.203,-311.035,-35.645,-30.273,0.000,0
1644798747.515,-11.719,-159.180,-35.156,-42.480,0.000,0
1644798747.518,1.953,-223.633,-32.227,-28.809,0.000,0
1644798747.522,-12.207,-24.902,-29.297,-9.766,0.000,0
1644798747.526,-33.203,148.438,-35.156,-20.020,0.000,0
1644798747.530,-40.039,-201.172,-41.504,-38.574,0.000,0
1644798747.534,-25.879,-34.180,-42.969,-43.457,0.000,0
1644798747.538,-17.090,411.621,-40.039,-32.715,0.000,0
1644798747.541,-22.461,359.375,-35.156,-29.297,0.000,0
1644798747.545,-29.785,-154.785,-40.039,-16.113,0.000,0
1644798747.549,-35.645,-288.086,-44.434,-32.227,0.000,0
1644798747.553,-29.785,74.219,-38.574,-53.223,0.000,0
1644798747.557,-16.113,233.398,-36.621,-35.645,0.000,0
1644798747.560,-12.695,-209.473,-40.527,-15.137,0.000,0
1644798747.564,-18.066,-514.160,-40.039,-8.789,0.000,0
1644798747.568,-31.738,-113.770,-37.598,-36.133,0.000,0
1644798747.572,-26.367,94.727,-31.250,-40.527,0.000,0
1644798747.576,-10.742,196.289,-28.809,-14.648,0.000,0
1644798747.579,-20.508,278.809,-34.668,-13.184,0.000,0
1644798747.583,-39.062,158.691,-35.156,-24.902,0.000,0
1644798747.587,-47.852,-166.504,-35.645,-31.250,0.000,0
1644798747.591,-37.109,-173.828,-34.180,-18.066,0.000,0
1644798747.595,-22.949,265.137,-30.273,-24.902,0.000,0
1644798747.598,-21.484,401.855,-28.809,-43.457,0.000,1
1644798747.602,-33.691,-24.902,-33.691,-33.203,0.000,0
1644798747.606,-47.852,-674.316,-41.504,-35.645,0.000,0
1644798747.610,-39.062,-559.570,-39.062,-47.852,0.000,0
1644798747.614,-23.926,143.066,-33.203,-43.945,0.000,0
1644798747.618,-17.090,256.836,-34.668,-14.648,0.000,0
1644798747.621,-26.367,41.992,-35.156,-13.672,0.000,0
1644798747.625,-33.203,-37.598,-33.203,-37.109,0.000,0
1644798747.629,-24.414,6.836,-32.227,-41.992,0.000,0
1644798747.633,-25.391,98.145,-32.227,-32.715,0.000,0
1644798747.636,-23.438,133.301,-32.715,-24.902,0.000,0
1644798747.640,-25.879,179.199,-38.086,-19.531,0.000,0
1644798747.644,-37.109,4.395,-39.551,-21.484,0.000,0
1644798747.648,-23.926,-460.938,-37.598,-39.062,0.000,0
1644798747.652,-10.254,-269.043,-34.180,-32.227,0.000,0
1644798747.656,-7.812,350.098,-29.297,-4.395,0.000,0
1644798747.659,-1.465,159.668,-28.320,15.625,0.000,0
1644798747.663,-12.207,-388.184,-32.715,-4.883,0.000,0
1644798747.667,-33.203,-344.238,-38.574,-32.715,0.000,0
1644798747.671,-21.484,239.746,-34.180,-29.785,0.000,0
1644798747.675,-1.465,344.727,-30.762,-27.344,0.000,0
1644798747.679,-13.184,153.320,-32.227,-20.508,0.000,0
1644798747.683,-37.109,-52.246,-38.086,-22.949,0.000,0
1644798747.687,-40.039,-120.605,-37.109,-44.434,0.000,0
1644798747.690,-20.020,33.691,-30.762,-38.086,0.000,0
1644798747.694,-3.906,9.277,-23.926,-10.742,0.000,0
1644798747.698,-8.789,-19.531,-24.414,-9.277,0.000,0
1644798747.702,-23.438,-111.328,-30.762,-25.879,0.000,0
1644798747.706,-28.809,-312.988,-37.109,-42.969,0.000,0
1644798747.709,-30.273,-325.195,-41.992,-41.016,0.000,0
1644798747.713,-23.438,192.383,-40.527,-35.645,0.000,0
1644798747.717,-15.137,275.391,-39.551,-32.715,0.000,0
1644798747.721,-29.297,-193.359,-41.992,-25.391,0.000,0
1644798747.725,-38.086,-292.969,-41.504,-45.898,0.000,0
1644798747.729,-22.949,72.266,-32.715,-61.523,0.000,0
1644798747.733,-16.602,357.910,-33.691,-50.781,0.000,0
1644798747.737,-12.695,238.770,-41.504,-39.551,0.000,0
1644798747.740,-24.414,-163.574,-46.387,-25.391,0.000,0
1644798747.744,-49.805,-331.543,-44.434,-29.297,0.000,0
1644798747.748,-41.016,42.969,-35.645,-38.086,0.000,0
1644798747.752,-24.414,-112.305,-31.738,-21.973,0.000,0
1644798747.756,-30.273,-209.473,-29.785,-15.625,0.000,0
1644798747.759,-41.016,257.812,-24.902,-25.879,0.000,0
1644798747.763,-41.992,-41.016,-30.762,-27.832,0.000,0
1644798747.767,-24.414,-141.113,-34.668,-26.367,0.000,0
1644798747.771,-10.742,203.125,-30.762,-10.742,0.000,0
1644798747.775,-10.254,266.602,-30.273,0.000,0.000,0
1644798747.779,-22.461,82.031,-30.273,-9.277,0.000,0
1644798747.783,-39.551,-235.352,-33.691,-29.785,0.000,0
1644798747.787,-43.457,-296.387,-31.250,-40.527,0.000,0
1644798747.790,-31.250,-29.785,-26.367,-42.480,0.000,0
1644798747.794,-17.578,123.535,-27.832,-17.578,0.000,0
1644798747.798,-26.855,-245.117,-30.762,5.371,0.000,0
1644798747.802,-46.387,-299.316,-28.320,-20.508,0.000,0
1644798747.806,-46.875,50.293,-29.785,-49.316,0.000,0
1644798747.809,-30.273,98.145,-31.738,-32.715,0.000,0
1644798747.814,-20.020,187.012,-29.785,-19.531,0.000,0
1644798747.817,-29.785,309.082,-32.715,-22.949,0.000,0
1644798747.821,-41.504,32.715,-36.621,-33.203,0.000,0
1644798747.825,-26.855,-262.207,-34.180,-44.434,0.000,0
1644798747.829,-18.555,-11.230,-34.180,-19.043,0.000,0
1644798747.833,-28.320,212.891,-34.180,-16.602,0.000,0
1644798747.837,-29.297,83.496,-29.785,-29.785,0.000,0
1644798747.840,-38.086,-501.465,-29.785,-35.156,0.000,0
1644798747.844,-41.992,-679.688,-27.832,-52.246,0.000,0
1644798747.848,-29.297,149.902,-22.461,-49.316,0.000,0
1644798747.852,-16.602,441.895,-21.484,-31.250,0.000,0
1644798747.856,-26.367,270.020,-24.414,-26.855,0.000,0
1644798747.860,-49.805,53.711,-29.297,-30.273,0.000,0
1644798747.863,-51.758,-37.598,-23.926,-26.855,0.000,0
1644798747.867,-24.902,41.504,-21.484,-18.066,0.000,0
1644798747.871,-1.465,184.082,-22.461,-7.324,0.000,0
1644798747.875,-10.254,295.410,-20.020,-8.301,0.000,0
1644798747.879,-27.344,-67.383,-25.391,-13.672,0.000,0
1644798747.883,-34.668,-427.246,-32.715,-27.344,0.000,0
1644798747.886,-18.555,-552.734,-35.645,-25.391,0.000,0
1644798747.890,-10.254,-143.066,-33.691,-22.949,0.000,0
1644798747.894,-24.414,408.691,-32.715,-39.062,0.000,0
1644798747.898,-36.621,69.336,-34.180,-34.668,0.000,0
1644798747.902,-46.875,-270.508,-37.598,-31.250,0.000,0
1644798747.906,-34.180,55.664,-34.668,-36.621,0.000,0
1644798747.910,-15.137,366.211,-28.320,-35.156,0.000,0
1644798747.913,-8.789,232.422,-31.738,-29.297,0.000,0
1644798747.917,-25.391,9.766,-37.598,-31.738,0.000,0
1644798747.921,-40.039,-125.977,-38.574,-47.852,0.000,0
1644798747.925,-21.973,-152.832,-38.086,-61.523,0.000,0
1644798747.929,-1.953,-266.113,-36.133,-44.922,0.000,0
1644798747.932,-8.301,-210.449,-34.180,-19.531,0.000,0
1644798747.936,-24.902,223.145,-28.320,-17.090,0.000,0
1644798747.940,-37.598,-20.020,-25.879,-26.367,0.000,0
1644798747.944,-35.645,-212.891,-30.762,-48.828,0.000,0
1644798747.948,-25.391,15.137,-31.738,-53.223,0.000,0
1644798747.952,-24.414,332.520,-29.297,-44.922,0.000,0
1644798747.956,-27.344,230.469,-30.762,-36.621,0.000,0
1644798747.959,-35.156,-225.586,-31.250,-39.062,0.000,0
1644798747.963,-45.410,-181.641,-28.809,-51.758,0.000,0
1644798747.967,-37.598,186.035,-27.832,-41.992,0.000,0
1644798747.971,-23.438,214.355,-21.973,-26.367,0.000,0
1644798747.975,-30.762,-347.656,-24.414,-20.508,0.000,0
1644798747.978,-41.504,-469.727,-29.297,-21.973,0.000,0
1644798747.982,-35.156,-20.996,-24.414,-36.133,0.000,0
1644798747.986,-14.648,98.145,-21.973,-38.574,0.000,0
1644798747.990,-2.441,236.816,-23.438,-16.113,0.000,0
1644798747.994,-9.277,352.051,-30.762,-23.926,0.000,0
1644798747.998,-31.250,101.074,-37.598,-50.293,0.000,0
1644798748.001,-53.711,-259.766,-42.969,-60.547,0.000,0
1644798748.005,-44.922,-209.961,-39.551,-61.523,0.000,0
1644798748.009,-28.320,267.090,-28.320,-43.945,0.000,0
1644798748.013,-35.156,402.344,-32.227,-32.715,0.000,0
1644798748.017,-46.387,-347.168,-44.922,-25.879,0.000,0
1644798748.021,-49.316,-714.844,-41.992,-41.504,0.000,0
1644798748.024,-36.133,60.547,-35.645,-64.941,0.000,0
1644798748.028,-18.066,434.570,-33.203,-55.176,0.000,0
1644798748.032,-32.715,199.707,-31.250,-38.086,0.000,0
1644798748.036,-57.129,3.906,-31.250,-32.715,0.000,0
1644798748.040,-63.477,-87.402,-26.367,-47.363,0.000,0
1644798748.044,-62.500,-20.020,-22.949,-60.059,0.000,0
1644798748.048,-53.223,187.012,-25.879,-42.480,0.000,0
1644798748.052,-44.434,304.199,-26.855,-42.480,0.000,0
1644798748.056,-70.312,167.969,-27.344,-60.059,0.000,0
1644798748.059,-91.797,-227.539,-27.832,-61.035,0.000,0
1644798748.063,-73.730,-365.723,-30.273,-64.941,0.000,0
1644798748.067,-54.199,-13.184,-28.320,-54.199,0.000,0
1644798748.071,-66.406,179.199,-24.902,-47.363,0.000,0
1644798748.075,-79.590,-99.609,-30.762,-63.477,0.000,0
1644798748.078,-74.707,-529.785,-33.691,-62.012,0.000,0
1644798748.082,-70.312,-170.410,-26.367,-71.289,0.000,0
1644798748.086,-57.617,425.293,-25.879,-75.684,0.000,0
1644798748.090,-48.340,309.082,-30.273,-62.012,0.000,0
1644798748.094,-50.781,68.359,-26.367,-46.875,0.000,0
1644798748.098,-58.594,-76.172,-27.832,-52.734,0.000,0
1644798748.102,-61.523,-34.668,-30.273,-53.711,0.000,0
1644798748.106,-32.715,98.633,-30.762,-23.438,0.000,0
1644798748.110,-14.160,45.898,-35.156,-19.531,0.000,0
1644798748.113,-37.598,73.242,-37.598,-49.805,0.000,0
1644798748.117,-48.340,8.301,-32.227,-65.918,0.000,0
1644798748.121,-42.480,-517.578,-33.203,-48.828,0.000,0
1644798748.125,-32.715,-388.184,-35.156,-35.156,0.000,0
1644798748.129,-20.996,417.969,-31.250,-35.645,0.000,0
1644798748.133,-28.809,228.516,-30.762,-24.414,0.000,0
1644798748.137,-47.852,-204.102,-31.250,-21.973,0.000,0
1644798748.141,-46.875,-129.395,-27.832,-43.945,0.000,0
1644798748.145,-23.926,273.438,-24.902,-44.434,0.000,0
1644798748.148,-15.137,381.348,-28.320,-25.391,0.000,0
1644798748.152,-29.297,121.582,-31.738,-24.902,0.000,0
1644798748.156,-45.410,-250.488,-34.668,-32.715,0.000,0
1644798748.160,-46.875,-371.094,-36.133,-35.645,0.000,0
1644798748.164,-30.762,-129.395,-35.645,-18.555,0.000,0
1644798748.167,-27.344,-71.777,-33.691,-8.301,0.000,0
1644798748.171,-36.621,158.203,-35.645,-28.320,0.000,0
1644798748.175,-41.992,202.637,-39.062,-27.832,0.000,0
1644798748.179,-33.203,-317.383,-42.480,-26.855,0.000,0
1644798748.183,-11.230,-288.086,-37.598,-28.320,0.000,0
1644798748.187,-5.859,357.910,-33.691,-19.531,0.000,0
1644798748.191,-19.043,468.262,-45.898,-20.996,0.000,0
1644798748.195,-32.227,-12.207,-46.387,-23.926,0.000,0
1644798748.198,-32.715,-308.594,-38.574,-28.320,0.000,0
1644798748.202,-25.879,-138.672,-40.039,-27.832,0.000,0
1644798748.206,-12.695,152.344,-39.551,-22.461,0.000,0
1644798748.210,-5.371,-83.984,-30.762,-28.809,0.000,0
1644798748.214,-15.137,-463.867,-30.762,-28.320,0.000,0
1644798748.218,-37.109,-128.418,-39.062,-29.297,0.000,0
1644798748.221,-31.250,104.004,-38.086,-30.762,0.000,0
1644798748.225,-5.371,235.840,-31.738,-27.344,0.000,0
1644798748.229,0.000,356.445,-27.832,-14.160,0.000,0
1644798748.233,-6.836,196.777,-30.762,-7.324,0.000,0
1644798748.237,-17.578,-276.855,-33.203,-26.855,0.000,0
1644798748.241,-13.672,-284.180,-29.297,-38.574,0.000,0
1644798748.245,-2.930,195.312,-30.273,-18.066,0.000,0
1644798748.249,-3.906,208.496,-34.668,7.812,0.000,0
1644798748.252,-13.672,-124.023,-35.645,15.625,0.000,0
1644798748.256,-28.320,-670.898,-37.109,-5.859,0.000,0
1644798748.260,-36.133,-361.816,-33.691,-25.879,0.000,0
1644798748.264,-17.578,379.883,-31.250,-20.508,0.000,0
1644798748.268,3.418,290.527,-32.227,-5.859,0.000,0
1644798748.272,-1.953,14.648,-31.250,-5.371,0.000,0
1644798748.276,-27.832,-82.520,-36.621,-13.184,0.000,0
1644798748.280,-32.227,-36.621,-37.598,-8.789,0.000,0
1644798748.283,-6.836,63.477,-30.273,-10.742,0.000,0
1644798748.287,8.301,205.078,-27.344,-5.371,0.000,0
1644798748.291,4.883,192.871,-20.020,0.488,0.000,0
1644798748.295,-6.348,-192.383,-24.414,-20.996,0.000,0
1644798748.299,-7.812,-640.625,-33.203,-25.879,0.000,0
1644798748.303,6.348,-453.613,-33.691,-14.160,0.000,0
1644798748.306,3.418,359.863,-32.227,-18.066,0.000,0
1644798748.310,-5.371,312.012,-31.250,-15.625,0.000,0
1644798748.314,-14.160,-170.410,-33.203,-21.973,0.000,0
1644798748.318,-32.227,-178.223,-31.250,-38.574,0.000,0
1644798748.322,-23.438,190.430,-34.180,-31.738,0.000,0
1644798748.326,-1.465,315.430,-37.598,-18.555,0.000,0
1644798748.330,-19.043,112.305,-33.203,-19.531,0.000,0
1644798748.333,-38.574,-70.312,-38.086,-35.645,0.000,0
1644798748.337,-32.715,-169.922,-43.457,-44.922,0.000,0
1644798748.341,-21.973,-138.672,-38.574,-36.621,0.000,0
1644798748.345,-8.301,-291.992,-35.156,-16.602,0.000,0
1644798748.349,-7.324,-178.223,-28.320,-7.324,0.000,0
1644798748.353,-15.137,-43.945,-26.855,-13.184,0.000,0
1644798748.356,-20.508,-354.004,-30.273,-17.090,0.000,0
1644798748.360,-21.484,-91.309,-28.809,-12.207,0.000,0
1644798748.364,-15.625,435.059,-31.250,-14.648,0.000,0
1644798748.368,-12.207,470.215,-32.227,-23.438,0.000,0
1644798748.372,-20.996,5.371,-34.668,-22.461,0.000,0
1644798748.376,-35.645,-291.504,-36.133,-26.855,0.000,0
1644798748.379,-34.668,29.297,-27.344,-36.133,0.000,0
1644798748.383,-17.090,399.902,-23.438,-19.531,0.000,0
1644798748.387,-6.348,-58.594,-33.203,-1.953,0.000,0
1644798748.391,-26.855,-453.613,-35.156,-14.160,0.000,0
1644798748.395,-44.922,-110.352,-35.645,-36.133,0.000,0
1644798748.399,-30.273,39.551,-39.062,-49.316,0.000,0
1644798748.402,-12.207,109.375,-32.227,-43.945,0.000,0
1644798748.406,-13.184,263.184,-28.320,-29.297,0.000,0
1644798748.410,-29.785,152.344,-32.715,-16.602,0.000,0
1644798748.415,-41.504,-321.289,-37.109,-23.438,0.000,0
1644798748.418,-30.273,-270.020,-36.621,-30.273,0.000,1
1644798748.422,-10.254,211.914,-36.621,-17.090,0.000,0
1644798748.426,-9.277,408.203,-37.109,-11.719,0.000,0
1644798748.430,-17.578,142.578,-35.156,-12.695,0.000,0
1644798748.434,-24.902,-385.742,-35.156,-24.414,0.000,0
1644798748.438,-21.484,-439.453,-41.016,-30.762,0.000,0
1644798748.441,-6.836,49.316,-39.062,-34.668,0.000,0
1644798748.445,-10.254,225.586,-37.109,-20.508,0.000,0
1644798748.449,-22.461,-146.484,-40.039,-6.348,0.000,0
1644798748.453,-29.785,-160.645,-39.551,-23.926,0.000,0
1644798748.457,-35.645,34.180,-38.574,-30.762,0.000,0
1644798748.461,-23.926,48.340,-40.039,-25.879,0.000,0
1644798748.465,-15.137,190.918,-38.086,-19.043,0.000,0
1644798748.469,-23.926,203.613,-29.297,-11.230,0.000,0
1644798748.473,-41.016,-117.676,-32.715,-18.555,0.000,0
1644798748.477,-41.504,-277.344,-32.227,-41.504,0.000,0
1644798748.480,-27.344,-142.090,-30.762,-47.363,0.000,0
1644798748.484,-29.297,154.297,-37.109,-33.203,0.000,0
1644798748.488,-33.203,359.375,-31.738,-18.555,0.000,0
1644798748.492,-44.434,-315.918,-34.668,-4.883,0.000,0
1644798748.496,-47.363,-721.191,-37.598,-15.625,0.000,0
1644798748.499,-24.902,153.320,-35.156,-45.410,0.000,0
1644798748.503,-6.836,425.781,-41.504,-32.227,0.000,0
1644798748.508,-27.344,212.891,-41.016,-13.184,0.000,0
1644798748.512,-44.434,45.410,-39.062,-13.184,0.000,0
1644798748.515,-35.156,-54.688,-40.527,-13.184,0.000,0
1644798748.519,-20.508,32.715,-38.086,-47.852,0.000,0
1644798748.523,-11.719,109.375,-37.598,-63.477,0.000,0
1644798748.527,-9.766,101.074,-41.504,-41.504,0.000,0
1644798748.531,-27.832,-94.727,-43.945,-49.316,0.000,0
1644798748.535,-41.016,-399.414,-37.109,-54.688,0.000,0
1644798748.538,-20.508,-542.480,-32.227,-41.016,0.000,0
1644798748.542,-6.836,63.477,-32.227,-25.391,0.000,0
1644798748.546,-13.184,481.445,-29.785,-9.766,0.000,0
1644798748.550,-17.578,18.555,-31.738,3.906,0.000,0
1644798748.554,-26.367,-256.836,-33.691,-9.766,0.000,0
1644798748.558,-30.273,50.781,-32.715,-27.832,0.000,0
1644798748.562,-12.695,344.238,-32.227,-30.762,0.000,0
1644798748.566,-1.953,234.375,-36.621,-19.531,0.000,0
1644798748.570,-18.066,23.926,-39.062,-10.742,0.000,0
1644798748.573,-33.691,-277.832,-37.598,-28.809,0.000,0
1644798748.577,-28.320,-237.305,-30.273,-36.621,0.000,0
1644798748.581,-8.789,-194.336,-22.949,-11.719,0.000,0
1644798748.585,3.418,-302.246,-24.414,2.441,0.000,0
1644798748.589,-6.348,112.793,-31.738,-16.113,0.000,0
1644798748.592,-26.855,29.297,-38.574,-43.457,0.000,0
1644798748.596,-37.598,-154.785,-39.551,-45.898,0.000,0
1644798748.601,-30.273,185.059,-34.668,-37.598,0.000,0
1644798748.604,-14.648,445.801,-31.250,-26.855,0.000,0
1644798748.608,-19.531,245.117,-39.062,-11.719,0.000,0
1644798748.612,-37.109,-173.828,-44.922,-30.273,0.000,0
1644798748.616,-42.969,-150.879,-42.480,-47.363,0.000,0
1644798748.620,-26.367,49.316,-39.062,-43.457,0.000,0
1644798748.624,-7.324,75.684,-38.574,-32.227,0.000,0
1644798748.627,-5.859,-300.781,-37.598,-6.836,0.000,0
1644798748.631,-29.785,-344.727,-37.598,-5.859,0.000,0
1644798748.635,-34.668,0.000,-34.668,-18.555,0.000,0
1644798748.639,-6.348,51.758,-28.320,-16.113,0.000,0
1644798748.643,8.789,83.984,-26.855,-12.207,0.000,0
1644798748.647,0.000,198.242,-29.297,4.395,0.000,0
1644798748.651,-16.602,122.559,-33.203,-1.953,0.000,0
1644798748.655,-22.949,-222.656,-31.738,-10.254,0.000,0
1644798748.659,-8.789,-48.340,-27.344,-13.672,0.000,0
1644798748.662,6.348,363.281,-26.855,-16.113,0.000,0
1644798748.666,-0.488,260.742,-23.438,-25.879,0.000,0
1644798748.670,-14.648,-394.531,-26.367,-22.949,0.000,0
1644798748.674,-21.973,-688.965,-33.691,-2.441,0.000,0
1644798748.678,-9.766,52.246,-32.227,-16.602,0.000,0
1644798748.681,6.348,402.344,-26.367,-6.348,0.000,0
1644798748.685,-5.859,253.418,-24.902,8.789,0.000,0
1644798748.689,-26.367,61.523,-25.879,-8.301,0.000,0
1644798748.693,-35.645,-42.969,-24.902,-26.367,0.000,0
1644798748.697,-27.344,14.648,-21.484,-23.438,0.000,0
1644798748.701,-9.766,28.809,-23.926,-10.254,0.000,0
1644798748.705,-10.254,163.086,-26.367,-2.930,0.000,0
1644798748.709,-22.461,157.227,-21.973,10.254,0.000,0
1644798748.712,-18.066,-262.695,-20.020,-0.488,0.000,0
1644798748.716,-7.324,-656.250,-17.578,-5.859,0.000,0
1644798748.720,3.906,-206.543,-14.160,-1.953,0.000,0
1644798748.724,0.977,486.816,-19.043,-17.090,0.000,0
1644798748.728,-16.602,157.227,-31.250,-12.207,0.000,0
1644798748.732,-23.438,-244.629,-33.691,-6.836,0.000,0
1644798748.735,-21.973,-14.160,-19.531,-0.488,0.000,0
1644798748.740,3.418,333.496,-11.230,-10.742,0.000,0
1644798748.743,7.324,286.621,-15.625,-30.273,0.000,0
1644798748.747,-16.602,37.598,-14.160,-28.320,0.000,0
1644798748.751,-21.973,-75.684,-14.648,-16.602,0.000,0
1644798748.755,-19.531,-67.871,-18.066,-19.531,0.000,0
1644798748.759,-6.836,-165.039,-16.113,-4.395,0.000,0
1644798748.763,-2.930,-157.227,-18.066,-4.883,0.000,0
1644798748.766,-16.113,6.348,-20.020,-10.254,0.000,0
1644798748.770,-37.109,-83.496,-20.508,-13.672,0.000,0
1644798748.774,-31.738,-365.723,-16.602,-26.367,0.000,0
1644798748.778,-16.602,-95.703,-14.648,-19.043,0.000,0
1644798748.782,-15.137,462.891,-17.578,-17.090,0.000,0
1644798748.786,-15.137,322.754,-21.484,-23.438,0.000,0
1644798748.790,-23.438,-101.074,-23.438,-18.555,0.000,0
1644798748.794,-25.879,-185.059,-21.973,-26.367,0.000,0
1644798748.798,-10.742,183.594,-20.508,-26.855,0.000,0
1644798748.802,-6.836,322.266,-21.484,-18.066,0.000,0
1644798748.805,-25.391,-15.137,-23.438,-17.090,0.000,0
1644798748.809,-35.156,-312.988,-29.785,-15.625,0.000,0
1644798748.813,-40.039,-303.223,-32.715,-29.297,0.000,0
1644798748.817,-26.367,-81.543,-33.203,-38.086,0.000,0
1644798748.821,-7.812,-65.430,-35.156,-23.926,0.000,0
1644798748.825,-21.484,202.148,-30.762,-26.367,0.000,0
1644798748.828,-34.668,197.266,-30.273,-35.645,0.000,0
1644798748.833,-34.180,-264.160,-31.250,-27.832,0.000,0
1644798748.837,-24.902,-138.184,-27.832,-28.320,0.000,0
1644798748.841,3.906,368.164,-21.973,-27.832,0.000,0
1644798748.844,3.418,413.086,-22.949,-23.438,0.000,0
1644798748.848,-33.203,-80.566,-30.762,-30.762,0.000,0
1644798748.852,-46.387,-527.344,-33.203,-46.387,0.000,0
1644798748.856,-34.180,-181.641,-29.297,-43.945,0.000,0
1644798748.860,-18.555,416.992,-29.297,-20.996,0.000,0
1644798748.864,-18.555,12.207,-32.715,-6.836,0.000,0
1644798748.867,-43.457,-444.336,-36.133,-22.461,0.000,0
1644798748.871,-59.570,-119.629,-34.180,-39.062,0.000,0
1644798748.875,-34.668,-45.410,-31.250,-35.645,0.000,0
1644798748.880,-11.719,93.262,-31.250,-23.438,0.000,0
1644798748.883,-11.230,332.031,-24.414,-12.207,0.000,0
1644798748.887,-21.973,262.695,-20.996,-11.719,0.000,0
1644798748.891,-38.086,-117.676,-27.344,-28.809,0.000,0
1644798748.895,-30.762,-232.422,-29.297,-38.574,0.000,0
1644798748.899,-11.719,35.645,-30.762,-14.160,0.000,0
1644798748.903,-9.277,176.758,-27.344,-11.719,0.000,0
1644798748.906,-20.996,-0.488,-27.344,-22.949,0.000,0
1644798748.910,-29.785,-592.285,-27.832,-12.695,0.000,0
1644798748.914,-30.273,-341.797,-25.879,-11.230,0.000,0
1644798748.918,-22.461,400.879,-23.438,-24.414,0.000,0
1644798748.922,-5.859,313.477,-23.438,-29.297,0.000,0
1644798748.926,-19.043,80.078,-28.809,-30.273,0.000,0
1644798748.930,-45.898,8.301,-33.691,-33.691,0.000,0
1644798748.934,-40.039,-95.215,-33.203,-31.738,0.000,0
1644798748.938,-20.996,-38.574,-27.344,-25.391,0.000,0
1644798748.941,-14.648,207.520,-24.414,-27.832,0.000,0
1644798748.945,-16.602,127.930,-26.855,-23.926,0.000,0
1644798748.949,-23.438,-158.203,-26.855,-29.297,0.000,0
1644798748.953,-23.438,-576.660,-27.344,-33.203,0.000,0
1644798748.957,-15.625,-437.012,-28.320,-22.949,0.000,0
1644798748.961,-16.113,425.293,-24.414,-4.883,0.000,0
1644798748.964,-17.090,419.922,-22.461,-7.812,0.000,0
1644798748.968,-29.297,-116.699,-23.926,-38.086,0.000,0
1644798748.973,-36.621,-234.375,-27.344,-40.527,0.000,0
1644798748.977,-20.508,182.129,-28.809,-37.109,0.000,0
1644798748.981,-3.906,347.168,-28.320,-27.344,0.000,0
1644798748.985,-2.930,204.102,-29.785,-13.184,0.000,0
1644798748.988,-18.555,-8.301,-34.668,-21.484,0.000,0
1644798748.992,-31.250,-353.027,-37.598,-34.180,0.000,0
1644798748.996,-20.996,-207.520,-33.203,-40.039,0.000,0
1644798749.000,-2.930,-236.328,-28.320,-31.738,0.000,0
1644798749.004,-10.254,-53.223,-27.832,-24.414,0.000,0
1644798749.008,-32.227,226.562,-31.738,-26.855,0.000,0
1644798749.011,-34.180,-209.961,-35.156,-28.320,0.000,0
1644798749.015,-16.602,-138.184,-33.203,-18.555,0.000,0
1644798749.020,-11.230,350.098,-26.367,-16.602,0.000,0
1644798749.023,-12.207,453.613,-20.996,-8.789,0.000,0
1644798749.027,-12.207,16.113,-24.414,-8.301,0.000,0
1644798749.031,-37.598,-333.008,-28.809,-19.043,0.000,0
1644798749.035,-40.039,-49.805,-26.855,-26.855,0.000,0
1644798749.039,-8.301,91.797,-20.020,-20.020,0.000,0
1644798749.043,-7.324,53.223,-24.414,0.488,0.000,0
1644798749.046,-26.855,71.289,-34.180,-14.648,0.000,0
1644798749.050,-31.250,-127.441,-37.598,-33.203,0.000,0
1644798749.054,-24.902,-156.250,-37.109,-34.180,0.000,0
1644798749.058,-10.742,-256.836,-34.668,-16.113,0.000,0
1644798749.062,-13.184,-187.988,-34.180,-9.766,0.000,0
1644798749.066,-30.273,235.840,-29.297,-16.113,0.000,0
1644798749.070,-35.156,-92.285,-35.645,-18.066,0.000,0
1644798749.074,-24.902,-241.211,-41.992,-34.668,0.000,0
1644798749.078,-2.930,184.082,-35.156,-32.227,0.000,0
1644798749.081,-1.465,404.785,-36.621,-26.855,0.000,0
1644798749.085,-22.949,43.945,-39.551,-17.578,0.000,0
1644798749.089,-38.574,-703.125,-38.086,-11.230,0.000,0
1644798749.093,-40.039,-528.320,-33.691,-28.320,0.000,0
1644798749.097,-25.391,333.984,-30.273,-36.133,0.000,0
1644798749.100,-21.973,399.902,-32.227,-21.484,0.000,0
1644798749.104,-34.668,162.109,-39.062,-25.391,0.000,0
1644798749.108,-40.527,-40.039,-41.504,-35.645,0.000,0
1644798749.112,-39.551,-240.234,-34.668,-38.574,0.000,0
1644798749.116,-12.695,-90.332,-28.809,-32.227,0.000,0
1644798749.120,-7.812,228.516,-30.273,-20.508,0.000,0
1644798749.124,-30.273,364.746,-31.738,-14.648,0.000,0
1644798749.128,-31.738,75.684,-30.273,-7.812,0.000,0
1644798749.132,-32.227,-553.711,-35.156,-13.184,0.000,0
1644798749.135,-24.414,-439.453,-39.551,-13.184,0.000,0
1644798749.139,-13.184,403.320,-30.762,-17.090,0.000,0
1644798749.143,-19.043,434.082,-31.738,-36.133,0.000,0
1644798749.147,-35.156,-147.949,-38.086,-35.645,0.000,0
1644798749.151,-43.457,-265.625,-35.645,-38.086,0.000,0
1644798749.154,-29.297,161.621,-30.273,-37.109,0.000,0
1644798749.159,-9.766,325.684,-31.250,-16.602,0.000,0
1644798749.163,-23.926,218.750,-33.203,-23.926,0.000,0
1644798749.167,-45.410,-33.691,-36.133,-34.668,0.000,0
1644798749.171,-44.922,-289.062,-35.645,-20.508,0.000,0
1644798749.174,-34.668,-124.512,-31.738,-41.504,0.000,0
1644798749.178,-16.113,-4.395,-28.809,-37.598,0.000,0
1644798749.182,-15.625,20.996,-23.438,-23.926,0.000,0
1644798749.186,-35.156,-104.004,-25.391,-26.367,0.000,0
1644798749.190,-39.062,-403.809,-29.297,-29.785,0.000,0
1644798749.194,-34.180,-408.203,-31.250,-29.297,0.000,0
1644798749.197,-20.020,179.199,-35.156,-25.391,0.000,0
1644798749.201,-17.578,547.363,-30.273,-25.879,0.000,0
1644798749.206,-29.785,62.988,-30.273,-26.855,0.000,0
1644798749.210,-36.133,-354.004,-33.691,-33.203,0.000,0
1644798749.214,-41.016,-9.277,-25.879,-43.457,0.000,0
1644798749.217,-20.508,354.980,-22.461,-35.645,0.000,0
1644798749.221,-12.207,220.215,-26.855,-8.301,0.000,0
1644798749.225,-22.949,-140.137,-30.273,10.254,0.000,0
1644798749.229,-27.832,-344.238,-32.715,-22.949,0.000,0
1644798749.233,-26.367,-206.055,-35.645,-55.176,0.000,0
1644798749.237,-10.742,-157.715,-38.086,-21.484,0.000,0
1644798749.240,0.000,-91.309,-36.133,-5.859,0.000,0
1644798749.244,-15.625,331.055,-32.227,-21.973,0.000,0
1644798749.248,-34.180,80.078,-33.691,-25.391,0.000,0
1644798749.253,-24.902,-144.531,-34.180,-35.156,0.000,0
1644798749.256,-4.395,199.707,-31.250,-20.020,0.000,0
1644798749.260,-9.277,478.027,-30.762,-15.137,0.000,0
1644798749.264,-20.996,266.602,-36.133,-33.203,0.000,0
1644798749.268,-31.738,-171.875,-37.598,-29.297,0.000,0
1644798749.272,-33.203,-323.730,-30.273,-25.391,0.000,0
1644798749.276,-12.207,-83.496,-26.855,-23.926,0.000,1
1644798749.279,3.418,141.113,-26.855,-17.090,0.000,0
1644798749.283,-20.020,-246.582,-28.320,-0.488,0.000,0
1644798749.287,-47.363,-401.367,-31.738,4.883,0.000,0
1644798749.291,-53.711,-40.527,-35.156,-44.922,0.000,0
1644798749.295,-30.762,102.051,-31.738,-47.852,0.000,0
1644798749.299,-9.277,243.652,-25.879,-16.113,0.000,0
1644798749.303,-10.742,387.695,-19.531,-14.648,0.000,0
1644798749.307,-21.484,141.113,-22.949,-24.414,0.000,0
1644798749.311,-19.531,-242.188,-33.203,-29.785,0.000,0
1644798749.315,-18.066,-68.359,-32.715,-35.156,0.000,0
1644798749.318,-11.230,188.477,-29.785,-27.832,0.000,0
1644798749.322,-1.953,125.000,-27.832,-11.230,0.000,0
1644798749.326,-22.461,-386.719,-32.227,-2.441,0.000,0
1644798749.330,-39.062,-706.543,-35.156,-16.113,0.000,0
1644798749.334,-26.855,32.715,-34.668,-35.645,0.000,0
1644798749.338,-10.742,421.875,-34.668,-27.832,0.000,0
1644798749.341,-4.883,244.629,-29.297,-16.113,0.000,0
1644798749.346,-19.043,-68.359,-29.297,-6.348,0.000,0
1644798749.350,-36.133,-144.043,-31.738,-23.926,0.000,0
1644798749.353,-24.414,-1.953,-32.715,-44.922,0.000,0
1644798749.357,-10.742,189.453,-27.344,-37.109,0.000,0
1644798749.361,-10.254,333.008,-23.926,-39.062,0.000,0
1644798749.365,-25.391,32.227,-29.785,-26.367,0.000,0
1644798749.369,-43.457,-349.121,-34.180,-28.320,0.000,0
1644798749.373,-35.156,-675.781,-33.691,-36.133,0.000,0
1644798749.376,-16.113,-160.645,-30.273,-32.715,0.000,0
1644798749.380,-15.137,550.293,-33.203,-19.043,0.000,0
1644798749.384,-28.809,150.879,-38.574,-12.695,0.000,0
1644798749.388,-39.551,-272.949,-35.156,-44.434,0.000,0
1644798749.392,-37.109,-45.410,-36.133,-53.711,0.000,0
1644798749.396,-17.578,357.422,-34.180,-24.902,0.000,0
1644798749.400,-11.230,244.629,-32.227,-18.555,0.000,0
1644798749.404,-20.996,-43.945,-39.062,-29.785,0.000,0
1644798749.408,-33.691,-111.328,-35.156,-30.762,0.000,0
1644798749.412,-39.062,-186.523,-34.668,-38.086,0.000,0
1644798749.415,-22.949,-320.801,-44.434,-34.180,0.000,0
1644798749.419,-5.371,-218.262,-36.621,-28.320,0.000,0
1644798749.423,-19.043,294.922,-28.320,-20.020,0.000,0
1644798749.427,-34.180,104.492,-35.645,-24.902,0.000,0
1644798749.431,-27.832,-188.965,-37.598,-45.410,0.000,0
1644798749.435,-22.461,114.746,-34.668,-38.574,0.000,0
1644798749.439,-20.996,438.477,-28.809,-18.066,0.000,0
1644798749.443,-21.973,313.965,-27.344,-17.578,0.000,0
1644798749.446,-36.621,-104.492,-33.203,-26.367,0.000,0
1644798749.450,-42.969,-150.879,-34.668,-37.109,0.000,0
1644798749.454,-27.832,153.809,-31.738,-42.969,0.000,0
1644798749.458,-13.672,180.664,-33.203,-33.691,0.000,0
1644798749.462,-13.184,-269.531,-35.645,-13.672,0.000,0
1644798749.466,-27.832,-500.977,-34.180,-13.672,0.000,0
1644798749.470,-43.945,-256.348,-34.668,-47.852,0.000,0
1644798749.473,-30.762,9.277,-31.738,-53.223,0.000,0
1644798749.477,-13.184,187.500,-26.367,-31.738,0.000,0
1644798749.481,-15.625,354.492,-29.785,-28.320,0.000,0
1644798749.485,-21.484,232.422,-27.832,-7.812,0.000,0
1644798749.489,-33.691,-203.125,-26.855,-18.066,0.000,0
1644798749.493,-37.598,-129.883,-33.691,-49.316,0.000,0
1644798749.497,-18.066,348.633,-30.273,-36.621,0.000,0
1644798749.501,-34.180,409.180,-36.621,-55.664,0.000,0
1644798749.504,-66.406,-296.387,-44.922,-72.754,0.000,0
1644798749.508,-77.148,-683.105,-38.574,-66.406,0.000,0
1644798749.512,-72.266,31.738,-31.738,-75.195,0.000,0
1644798749.516,-58.594,405.762,-31.738,-68.848,0.000,0
1644798749.520,-83.496,221.191,-39.551,-72.754,0.000,0
1644798749.524,-132.812,104.980,-53.223,-109.863,0.000,0
1644798749.527,-148.926,26.367,-52.246,-140.137,0.000,0
1644798749.532,-133.301,10.254,-44.434,-124.512,0.000,0
1644798749.536,-127.930,174.316,-44.922,-114.258,0.000,0
1644798749.540,-132.812,390.137,-39.551,-127.441,0.000,0
1644798749.544,-143.066,350.098,-42.480,-123.047,0.000,0
1644798749.547,-156.250,-58.105,-48.340,-137.207,0.000,0
1644798749.551,-162.109,-316.406,-48.828,-170.410,0.000,0
1644798749.555,-148.926,-35.645,-46.875,-168.457,0.000,0
1644798749.559,-140.625,287.109,-50.781,-155.273,0.000,0
1644798749.563,-149.414,163.574,-55.664,-133.789,0.000,0
1644798749.567,-155.273,-364.258,-50.293,-142.578,0.000,0
1644798749.570,-153.320,-125.488,-45.898,-160.645,0.000,0
1644798749.574,-134.277,466.797,-43.457,-144.531,0.000,0
1644798749.579,-109.863,358.887,-38.574,-128.418,0.000,0
1644798749.583,-115.234,228.027,-38.574,-118.164,0.000,0
1644798749.587,-131.348,149.414,-32.227,-113.770,0.000,0
1644798749.590,-117.188,56.641,-33.203,-120.117,0.000,0
1644798749.594,-83.496,113.770,-37.598,-104.004,0.000,0
1644798749.598,-60.059,159.668,-33.203,-74.219,0.000,0
1644798749.602,-64.453,132.812,-30.762,-51.758,0.000,0
1644798749.606,-64.941,62.500,-27.344,-38.086,0.000,0
1644798749.610,-48.828,-374.023,-32.715,-43.457,0.000,0
1644798749.613,-24.902,-373.535,-31.738,-39.551,0.000,0
1644798749.617,-7.324,454.102,-21.484,-31.738,0.000,0
1644798749.621,-4.883,480.957,-20.996,-15.625,0.000,0
1644798749.626,-11.719,7.812,-26.367,8.301,0.000,0
1644798749.629,-8.789,-116.211,-31.738,-4.883,0.000,0
1644798749.633,5.859,166.504,-28.809,-19.043,0.000,0
1644798749.637,21.484,230.957,-25.391,-13.672,0.000,0
1644798749.641,21.973,121.582,-26.855,-6.348,0.000,0
1644798749.645,-1.465,-128.418,-29.297,-5.371,0.000,0
1644798749.649,-5.371,-348.145,-26.855,-2.441,0.000,0
1644798749.652,16.602,-185.547,-21.973,3.906,0.000,0
1644798749.656,35.156,-187.012,-25.879,-4.883,0.000,0
1644798749.660,29.297,111.816,-27.344,1.953,0.000,0
1644798749.664,17.090,315.430,-23.926,10.742,0.000,0
1644798749.668,10.254,-183.105,-29.785,7.324,0.000,0
1644798749.672,12.207,-169.922,-36.133,-9.766,0.000,0
1644798749.676,26.367,344.727,-28.320,1.465,0.000,0
1644798749.680,29.785,466.309,-20.996,22.461,0.000,0
1644798749.684,9.277,51.270,-27.344,17.090,0.000,0
1644798749.688,3.906,-323.730,-32.227,9.766,0.000,0
1644798749.691,22.461,-250.488,-28.320,12.695,0.000,0
1644798749.695,35.645,105.957,-25.879,13.672,0.000,0
1644798749.699,33.691,-51.758,-26.855,20.996,0.000,0
1644798749.703,20.996,-370.117,-24.902,34.668,0.000,0
1644798749.707,5.859,-73.730,-25.391,29.785,0.000,0
1644798749.711,12.695,0.000,-23.926,8.789,0.000,0
1644798749.714,25.391,118.652,-25.879,3.418,0.000,0
1644798749.719,25.391,335.449,-32.715,6.836,0.000,0
1644798749.723,16.602,290.527,-38.086,5.371,0.000,0
1644798749.727,4.395,-94.727,-39.551,6.836,0.000,0
1644798749.730,10.254,-282.227,-31.250,6.836,0.000,0
1644798749.734,20.996,75.684,-23.438,-2.441,0.000,0
1644798749.738,14.648,193.848,-21.973,-12.207,0.000,0
1644798749.742,5.371,-31.250,-23.438,-0.488,0.000,0
1644798749.746,-5.859,-587.402,-28.809,16.113,0.000,0
1644798749.750,-15.137,-439.941,-30.273,-0.977,0.000,0
1644798749.753,3.906,126.953,-31.738,-7.812,0.000,0
1644798749.757,17.578,128.906,-30.273,8.301,0.000,0
1644798749.761,-0.977,151.367,-32.715,7.812,0.000,0
1644798749.766,-14.648,72.266,-32.715,1.465,0.000,0
1644798749.769,-7.324,-61.035,-27.344,-2.930,0.000,0
1644798749.773,2.930,-57.617,-28.809,-9.766,0.000,0
1644798749.777,10.742,172.852,-33.203,-12.695,0.000,0
1644798749.781,0.000,284.668,-38.086,-13.672,0.000,0
1644798749.785,-19.043,-129.883,-39.062,-4.395,0.000,0
1644798749.789,-17.578,-687.988,-38.086,0.488,0.000,0
1644798749.792,-7.812,-548.828,-33.203,0.977,0.000,0
1644798749.796,-1.953,303.711,-27.832,-2.441,0.000,0
1644798749.800,-2.441,416.992,-28.320,-4.883,0.000,0
1644798749.804,-23.926,-67.383,-34.180,-8.301,0.000,0
1644798749.808,-34.668,-328.613,-37.598,-25.391,0.000,0
1644798749.812,-15.137,-86.426,-34.180,-38.574,0.000,0
1644798749.816,2.930,212.891,-30.273,-21.973,0.000,0
1644798749.820,5.859,232.422,-32.227,0.488,0.000,0
1644798749.824,-14.160,75.684,-35.645,3.906,0.000,0
1644798749.827,-27.344,-144.531,-32.715,-8.789,0.000,0
1644798749.831,-15.137,-179.199,-31.250,-16.602,0.000,0
1644798749.835,8.301,-308.594,-31.250,4.883,0.000,0
1644798749.839,8.301,-131.836,-31.250,-2.441,0.000,0
1644798749.843,-14.648,242.188,-34.668,-25.879,0.000,0
1644798749.847,-24.902,-193.359,-35.156,-13.184,0.000,0
1644798749.850,-8.301,-249.023,-29.297,-6.348,0.000,0
1644798749.854,9.277,306.641,-26.367,-11.230,0.000,0
1644798749.859,-2.930,460.938,-29.785,5.859,0.000,0
1644798749.863,-16.113,35.156,-26.855,11.230,0.000,0
1644798749.867,-17.090,-323.730,-27.344,-22.949,0.000,0
1644798749.870,-9.766,-234.375,-28.320,-40.039,0.000,0
1644798749.874,-9.277,160.156,-25.879,-27.832,0.000,0
1644798749.878,-6.836,-9.277,-31.738,7.324,0.000,0
1644798749.882,-9.277,-361.328,-30.762,33.203,0.000,0
1644798749.886,-26.367,-137.207,-23.438,-3.906,0.000,0
1644798749.890,-17.578,-45.898,-25.879,-28.320,0.000,0
1644798749.894,1.953,84.961,-24.414,-14.648,0.000,0
1644798749.897,7.324,262.695,-18.555,-1.465,0.000,0
1644798749.901,-7.324,309.082,-22.461,-8.301,0.000,0
1644798749.906,-22.461,-103.027,-28.320,-19.043,0.000,0
1644798749.910,-32.715,-321.777,-24.902,-24.414,0.000,0
1644798749.914,-26.855,74.219,-28.320,-23.926,0.000,0
1644798749.917,-7.812,397.949,-35.156,-10.742,0.000,0
1644798749.921,-17.578,213.379,-33.691,0.977,0.000,0
1644798749.925,-26.367,-379.883,-36.621,9.277,0.000,0
1644798749.929,-27.344,-518.555,-35.645,-22.461,0.000,0
1644798749.933,-15.137,-104.492,-31.738,-33.691,0.000,0
1644798749.937,-4.395,117.676,-34.180,-21.973,0.000,0
1644798749.940,-19.531,-179.688,-35.645,-18.066,0.000,0
1644798749.944,-40.527,-218.262,-38.086,-25.391,0.000,0
1644798749.948,-39.062,-12.695,-37.598,-33.691,0.000,0
1644798749.953,-17.090,-0.488,-34.180,-30.762,0.000,0
1644798749.956,-4.883,170.898,-32.227,-18.066,0.000,0
1644798749.960,-20.508,351.074,-30.273,-20.508,0.000,0
1644798749.964,-36.621,104.004,-28.320,-31.738,0.000,0
1644798749.968,-35.645,-328.613,-31.738,-25.391,0.000,0
1644798749.972,-24.414,-338.867,-39.062,-16.113,0.000,0
1644798749.976,-17.090,125.977,-38.086,-20.508,0.000,0
1644798749.980,-30.273,458.496,-36.621,-35.645,0.000,0
1644798749.983,-37.598,-250.977,-39.062,-31.250,0.000,0
1644798749.987,-39.062,-859.863,-35.645,-33.691,0.000,0
1644798749.991,-38.574,-86.914,-34.668,-54.688,0.000,0
1644798749.995,-18.555,395.020,-37.109,-46.875,0.000,0
1644798749.999,-9.766,300.781,-36.621,-30.762,0.000,0
1644798750.003,-26.855,119.141,-35.645,-21.484,0.000,0
1644798750.007,-45.898,-81.055,-40.039,-21.973,0.000,0
1644798750.011,-31.250,-36.133,-39.062,-28.809,0.000,0
1644798750.015,-17.578,105.469,-31.738,-23.926,0.000,0
1644798750.019,-32.227,126.465,-30.762,-17.578,0.000,0
1644798750.022,-37.598,-70.312,-30.762,-18.066,0.000,0
1644798750.026,-37.598,-383.789,-33.203,-22.949,0.000,0
1644798750.030,-35.645,-614.258,-33.691,-19.531,0.000,0
1644798750.034,-21.484,-32.227,-29.785,-11.230,0.000,0
1644798750.038,-10.254,569.336,-28.809,-19.531,0.000,0
1644798750.042,-23.438,209.961,-28.320,-31.738,0.000,0
1644798750.046,-39.551,-346.680,-26.855,-35.156,0.000,0
1644798750.050,-37.109,-145.020,-24.414,-50.293,0.000,0
1644798750.054,-30.273,356.445,-28.320,-41.504,0.000,0
1644798750.058,-20.020,273.926,-25.879,-20.508,0.000,0
1644798750.061,-14.160,32.715,-23.438,-13.672,0.000,0
1644798750.065,-32.715,-262.695,-27.344,-16.602,0.000,0
1644798750.069,-29.297,-308.594,-22.949,-18.555,0.000,0
1644798750.073,-8.789,-273.926,-20.996,-7.812,0.000,0
1644798750.077,-5.371,-178.711,-22.949,-4.883,0.000,0
1644798750.081,-17.090,298.340,-25.391,-3.906,0.000,0
1644798750.085,-37.109,89.355,-29.297,-18.066,0.000,0
1644798750.088,-34.668,-226.562,-29.297,-47.363,0.000,0
1644798750.093,-20.996,87.402,-32.227,-41.992,0.000,0
1644798750.097,-9.277,457.031,-33.203,-20.508,0.000,0
1644798750.100,-14.160,310.547,-30.762,4.395,0.000,0
1644798750.104,-32.715,-229.492,-35.645,-16.602,0.000,0
1644798750.108,-35.156,-297.363,-40.527,-51.758,0.000,1
1644798750.112,-18.555,-16.602,-36.621,-40.039,0.000,0
1644798750.116,-6.348,102.539,-35.156,-28.809,0.000,0
1644798750.120,-20.508,-252.441,-41.016,-21.973,0.000,0
1644798750.124,-47.363,-293.945,-38.574,-21.973,0.000,0
1644798750.127,-48.828,37.109,-33.203,-16.602,0.000,0
1644798750.131,-27.344,-6.348,-35.645,-34.668,0.000,0
1644798750.135,-9.766,197.266,-36.133,-39.062,0.000,0
1644798750.139,-14.648,394.043,-35.156,-26.855,0.000,0
1644798750.143,-33.203,158.203,-36.621,-31.250,0.000,0
1644798750.147,-40.527,-286.133,-41.016,-34.668,0.000,0
1644798750.151,-24.414,-192.871,-37.109,-34.668,0.000,0
1644798750.155,-1.953,302.734,-30.762,-26.367,0.000,0
1644798750.159,-14.648,259.766,-35.645,-27.344,0.000,0
1644798750.162,-40.039,-395.996,-39.551,-16.602,0.000,0
1644798750.166,-42.969,-745.117,-37.598,2.441,0.000,0
1644798750.170,-30.762,-47.852,-30.762,-24.414,0.000,0
1644798750.174,-10.254,395.020,-28.320,-41.992,0.000,0
1644798750.178,-13.672,259.277,-28.320,-30.273,0.000,0
1644798750.182,-35.156,59.082,-31.738,-34.180,0.000,0
1644798750.186,-46.387,-99.609,-27.832,-54.199,0.000,0
1644798750.190,-34.668,-76.172,-19.043,-57.617,0.000,0
1644798750.194,-6.836,118.652,-21.484,-40.527,0.000,0
1644798750.198,-0.977,298.340,-26.367,-26.855,0.000,0
1644798750.201,-24.414,206.543,-29.297,-19.531,0.000,0
1644798750.205,-46.875,-243.652,-34.180,-21.484,0.000,0
1644798750.209,-37.109,-754.883,-35.156,-13.184,0.000,0
1644798750.213,-20.020,-276.855,-28.809,-15.137,0.000,0
1644798750.217,-27.344,486.328,-22.949,-20.508,0.000,0
1644798750.221,-30.273,198.242,-26.367,-13.184,0.000,0
1644798750.224,-39.551,-286.133,-38.086,-21.973,0.000,0
1644798750.228,-41.992,-199.707,-44.434,-53.711,0.000,0
1644798750.233,-19.043,247.070,-46.387,-52.734,0.000,0
1644798750.237,-6.348,237.305,-47.852,-19.043,0.000,0
1644798750.241,-20.508,72.266,-43.945,-12.207,0.000,0
1644798750.244,-36.621,2.441,-36.133,-28.320,0.000,0
1644798750.248,-29.785,-70.312,-30.273,-38.574,0.000,0
1644798750.252,-13.184,-215.332,-27.344,-27.344,0.000,0
1644798750.256,-7.812,-153.320,-32.227,-6.836,0.000,0
1644798750.260,-14.648,289.062,-38.574,-10.254,0.000,0
1644798750.264,-35.645,127.441,-40.039,-28.809,0.000,0
1644798750.268,-46.387,-422.363,-39.062,-31.250,0.000,0
1644798750.271,-31.738,-199.219,-33.203,-45.898,0.000,0
1644798750.275,-16.113,424.316,-29.785,-34.180,0.000,0
1644798750.280,-17.578,237.305,-30.273,-19.531,0.000,0
1644798750.284,-33.203,-155.762,-31.250,-41.016,0.000,0
1644798750.287,-38.574,-196.777,-35.645,-55.664,0.000,0
1644798750.291,-17.578,111.816,-35.156,-49.805,0.000,0
1644798750.295,-17.090,283.691,-31.738,-27.344,0.000,0
1644798750.299,-32.227,43.457,-30.273,-12.695,0.000,0
1644798750.303,-44.434,-225.586,-29.297,-18.555,0.000,0
1644798750.307,-46.875,-325.195,-29.297,-36.621,0.000,0
1644798750.311,-31.738,-105.469,-32.227,-47.363,0.000,0
1644798750.314,-10.254,-147.949,-33.691,-31.250,0.000,0
1644798750.318,-14.160,88.867,-33.691,-22.461,0.000,0
1644798750.322,-34.180,312.988,-34.180,-23.926,0.000,0
1644798750.327,-39.062,-200.684,-33.691,-28.809,0.000,0
1644798750.330,-36.621,-216.309,-32.715,-46.875,0.000,0
1644798750.334,-24.902,310.059,-29.785,-37.598,0.000,0
1644798750.338,-17.578,315.430,-35.645,-21.484,0.000,0
1644798750.342,-26.367,-125.000,-41.016,-26.855,0.000,0
1644798750.346,-39.062,-509.766,-39.062,-33.691,0.000,0
1644798750.350,-37.598,-257.324,-38.574,-46.875,0.000,0
1644798750.354,-19.043,347.656,-34.180,-37.109,0.000,0
1644798750.357,-11.719,16.602,-35.645,-17.578,0.000,0
1644798750.361,-22.461,-366.699,-35.645,-15.625,0.000,0
1644798750.365,-40.527,-69.824,-36.133,-26.855,0.000,0
1644798750.369,-33.691,-11.719,-38.574,-39.062,0.000,0
1644798750.373,-22.461,115.723,-36.133,-30.273,0.000,0
1644798750.377,-25.391,321.289,-32.227,-19.531,0.000,0
1644798750.381,-30.273,315.918,-31.738,-9.766,0.000,0
1644798750.385,-39.551,-99.609,-36.621,-26.855,0.000,0
1644798750.389,-37.598,-308.594,-41.504,-56.152,0.000,0
1644798750.393,-27.344,-78.125,-40.527,-41.992,0.000,0
1644798750.396,-20.020,110.352,-37.598,-34.668,0.000,0
1644798750.400,-21.973,37.598,-40.039,-37.109,0.000,0
1644798750.404,-28.809,-569.336,-40.039,-9.277,0.000,0
1644798750.408,-40.039,-431.641,-37.598,-24.414,0.000,0
1644798750.412,-35.156,277.832,-31.738,-41.504,0.000,0
1644798750.416,-19.043,273.926,-27.344,-9.766,0.000,0
1644798750.420,-14.648,191.895,-26.855,-10.742,0.000,0
1644798750.424,-27.344,105.469,-32.715,-25.391,0.000,0
1644798750.428,-43.945,-51.758,-40.039,-26.855,0.000,0
1644798750.432,-30.762,-4.883,-40.039,-20.996,0.000,0
1644798750.436,-15.625,186.523,-33.203,-17.090,0.000,0
1644798750.439,-20.020,187.500,-32.227,-10.254,0.000,0
1644798750.443,-25.879,-104.980,-30.762,1.465,0.000,0
1644798750.447,-19.531,-585.938,-30.273,-3.906,0.000,0
1644798750.451,-13.184,-489.258,-32.715,-1.953,0.000,0
1644798750.455,-8.789,254.395,-30.273,-1.953,0.000,0
1644798750.459,-8.789,227.051,-30.273,-10.254,0.000,0
1644798750.462,-26.367,-77.637,-34.180,-19.043,0.000,0
1644798750.467,-43.457,-136.719,-40.527,-39.062,0.000,0
1644798750.471,-40.039,141.113,-42.969,-36.133,0.000,0
1644798750.475,-22.461,346.191,-38.574,-16.602,0.000,0
1644798750.478,-10.742,278.320,-34.180,2.441,0.000,0
1644798750.482,-15.625,88.379,-39.551,-13.184,0.000,0
1644798750.486,-32.227,-262.207,-43.457,-52.734,0.000,0
1644798750.490,-29.297,-274.414,-42.969,-54.199,0.000,0
1644798750.494,-11.719,-276.367,-39.551,-27.344,0.000,0
1644798750.498,-13.672,55.176,-35.645,-19.043,0.000,0
1644798750.501,-24.902,373.047,-37.109,-41.992,0.000,0
1644798750.505,-30.762,-104.980,-37.598,-45.410,0.000,0
1644798750.509,-23.926,-182.617,-34.668,-42.969,0.000,0
1644798750.514,-9.766,205.566,-31.738,-39.551,0.000,0
1644798750.517,-7.812,336.914,-36.133,-19.043,0.000,0
1644798750.521,-29.785,71.289,-43.457,-11.230,0.000,0
1644798750.525,-57.617,-241.699,-42.969,-25.879,0.000,0
1644798750.529,-40.039,-104.492,-37.109,-33.203,0.000,0
1644798750.533,-22.949,106.934,-34.668,-23.926,0.000,0
1644798750.537,-25.879,-75.684,-35.645,-8.301,0.000,0
1644798750.540,-27.344,-330.078,-33.691,1.465,0.000,0
1644798750.544,-50.293,-52.734,-33.691,-20.020,0.000,0
1644798750.548,-41.992,14.648,-39.062,-37.598,0.000,0
1644798750.552,-14.648,75.684,-36.621,-27.832,0.000,0
1644798750.556,-20.996,311.523,-32.227,-30.762,0.000,0
1644798750.560,-25.391,365.723,-35.645,-39.551,0.000,0
1644798750.564,-29.297,-8.301,-35.156,-37.598,0.000,0
1644798750.568,-33.203,-246.582,-28.809,-52.246,0.000,0
1644798750.572,-17.578,-13.672,-28.320,-44.434,0.000,0
1644798750.576,-12.695,197.754,-31.250,-13.184,0.000,0
1644798750.579,-17.090,111.816,-34.180,-5.371,0.000,0
1644798750.583,-29.297,-583.008,-36.133,-8.301,0.000,0
1644798750.587,-37.598,-602.051,-34.668,-20.996,0.000,0
1644798750.591,-23.438,212.891,-29.785,-21.484,0.000,0
1644798750.595,-16.113,374.512,-28.809,-22.949,0.000,0
1644798750.599,-17.090,225.098,-31.738,-22.461,0.000,0
1644798750.602,-35.645,122.070,-32.715,-33.691,0.000,0
1644798750.607,-50.781,-24.414,-36.621,-63.477,0.000,0
1644798750.611,-25.391,-49.316,-38.574,-51.758,0.000,0
1644798750.614,-10.254,148.926,-38.574,-20.020,0.000,0
1644798750.618,-19.043,383.789,-35.645,-17.578,0.000,0
1644798750.622,-32.227,163.086,-35.156,-34.180,0.000,0
1644798750.626,-44.922,-500.977,-41.504,-39.062,0.000,0
1644798750.630,-37.109,-600.586,-44.922,-35.156,0.000,0
1644798750.634,-22.461,184.570,-37.598,-27.832,0.000,0
1644798750.637,-22.949,477.051,-33.203,-18.066,0.000,0
1644798750.641,-28.320,21.973,-40.039,-21.484,0.000,0
1644798750.645,-28.809,-302.734,-40.039,-36.621,0.000,0
1644798750.649,-29.297,-97.168,-34.668,-33.203,0.000,0
1644798750.654,-23.926,245.605,-34.668,-16.602,0.000,0
1644798750.657,-14.648,280.273,-34.180,-26.855,0.000,0
1644798750.661,-21.973,125.977,-38.574,-31.738,0.000,0
1644798750.665,-43.457,-80.566,-38.574,-19.043,0.000,0
1644798750.669,-29.785,-140.137,-33.691,-27.344,0.000,0
1644798750.673,-2.930,-65.430,-33.203,-27.832,0.000,0
1644798750.677,-8.301,15.137,-30.762,-10.254,0.000,0
1644798750.681,-27.832,27.344,-27.344,-7.812,0.000,0
1644798750.684,-34.668,-203.613,-31.738,-24.902,0.000,0
1644798750.688,-21.973,-566.895,-36.621,-40.039,0.000,0
1644798750.692,-12.695,-92.773,-30.762,-24.902,0.000,0
1644798750.696,-18.066,518.555,-23.926,-16.113,0.000,0
1644798750.700,-26.855,200.195,-28.809,-23.926,0.000,0
1644798750.704,-37.109,-241.211,-36.133,-25.391,0.000,0
1644798750.708,-39.551,-122.070,-33.203,-34.668,0.000,0
1644798750.712,-26.855,252.441,-32.715,-44.922,0.000,0
1644798750.716,-15.625,256.348,-33.203,-18.555,0.000,0
1644798750.720,-14.160,-88.379,-32.227,-11.719,0.000,0
1644798750.724,-32.715,-276.367,-39.551,-31.738,0.000,0
1644798750.727,-42.969,-88.379,-39.062,-28.809,0.000,0
1644798750.731,-21.484,-183.594,-30.762,-23.438,0.000,0
1644798750.735,-7.324,-224.121,-31.250,-22.461,0.000,0
1644798750.739,-16.113,280.273,-35.156,-37.598,0.000,0
1644798750.743,-34.668,79.102,-41.016,-49.805,0.000,0
1644798750.747,-42.969,-333.008,-44.922,-54.199,0.000,0
1644798750.751,-30.762,-102.539,-39.551,-44.922,0.000,0
1644798750.755,-15.137,394.043,-35.156,-34.180,0.000,0
1644798750.759,-18.555,353.027,-41.992,-33.691,0.000,0
1644798750.763,-26.367,-128.906,-41.016,-38.574,0.000,0
1644798750.767,-35.645,-398.926,-39.551,-50.293,0.000,0
1644798750.770,-36.133,-152.832,-41.504,-46.875,0.000,0
1644798750.774,-27.832,157.227,-39.551,-31.738,0.000,0
1644798750.778,-24.414,-115.723,-39.062,-22.949,0.000,0
1644798750.782,-36.133,-180.176,-42.480,-30.762,0.000,0
1644798750.786,-49.316,45.410,-46.387,-52.246,0.000,0
1644798750.790,-29.785,16.602,-46.875,-58.105,0.000,0
1644798750.794,-16.602,203.125,-39.062,-44.434,0.000,0
1644798750.798,-25.879,428.711,-39.062,-34.180,0.000,0
1644798750.802,-39.062,192.383,-38.086,-39.062,0.000,0
1644798750.806,-41.992,-359.863,-33.203,-30.273,0.000,0
1644798750.809,-28.320,-333.008,-33.203,-24.414,0.000,0
1644798750.813,-10.742,42.969,-29.785,-20.996,0.000,0
1644798750.817,-12.695,271.484,-29.785,-11.230,0.000,0
1644798750.821,-31.250,-153.809,-33.203,6.348,0.000,0
1644798750.825,-50.293,-708.496,-32.227,5.859,0.000,0
1644798750.829,-41.992,-64.453,-31.250,-49.805,0.000,0
1644798750.833,-23.926,384.766,-31.738,-52.246,0.000,0
1644798750.836,-21.484,316.895,-29.297,-11.230,0.000,0
1644798750.841,-24.902,176.270,-26.855,-13.672,0.000,0
1644798750.845,-41.016,-44.922,-30.273,-24.902,0.000,0
1644798750.848,-41.016,-136.230,-38.086,-35.645,0.000,0
1644798750.852,-15.625,110.840,-38.574,-41.504,0.000,0
1644798750.856,-10.742,351.562,-29.297,-27.344,0.000,0
1644798750.860,-25.879,62.988,-27.832,-15.625,0.000,0
1644798750.864,-40.039,-366.699,-35.156,-21.973,0.000,0
1644798750.868,-35.645,-728.516,-36.621,-30.273,0.000,0
1644798750.872,-19.043,-344.727,-29.297,-21.484,0.000,0
1644798750.875,-19.531,432.129,-25.879,-6.348,0.000,0
1644798750.879,-23.926,241.211,-29.297,-14.648,0.000,0
1644798750.883,-34.668,-209.473,-34.180,-28.320,0.000,0
1644798750.887,-45.410,-97.168,-33.691,-33.691,0.000,0
1644798750.891,-20.996,289.551,-31.250,-27.832,0.000,0
1644798750.895,-5.859,310.059,-36.621,-13.184,0.000,0
1644798750.899,-16.602,155.762,-37.109,-20.996,0.000,0
1644798750.903,-35.645,-4.883,-33.203,-37.598,0.000,0
1644798750.907,-44.434,-235.840,-31.738,-32.227,0.000,0
1644798750.911,-30.273,-332.520,-32.227,-32.715,0.000,0
1644798750.914,-15.137,-197.754,-29.297,-17.090,0.000,0
1644798750.918,-23.438,347.656,-31.738,-18.555,0.000,0
1644798750.922,-38.086,145.996,-42.480,-26.367,0.000,0
1644798750.926,-37.598,-295.410,-44.922,-24.414,0.000,0
1644798750.930,-31.250,19.043,-40.527,-22.461,0.000,0
1644798750.934,-18.555,458.984,-34.668,-16.113,0.000,0
1644798750.938,-10.742,371.094,-38.086,-23.926,0.000,0
1644798750.942,-21.973,-83.984,-37.598,-16.113,0.000,0
1644798750.946,-35.156,-205.566,-32.715,-33.203,0.000,0
1644798750.950,-21.973,38.086,-33.203,-47.852,0.000,0
1644798750.953,-1.953,164.062,-32.227,-18.555,0.000,0
1644798750.957,-5.371,-265.625,-35.645,4.395,0.000,0
1644798750.961,-26.855,-413.574,-35.156,-15.625,0.000,1
1644798750.965,-35.645,-27.344,-29.297,-38.574,0.000,0
1644798750.969,-24.414,-9.277,-31.738,-40.039,0.000,0
1644798750.973,-9.766,154.785,-30.762,-39.062,0.000,0
1644798750.976,-1.953,434.570,-29.785,-29.785,0.000,0
1644798750.981,-19.043,242.188,-32.227,-5.859,0.000,0
1644798750.985,-38.086,-339.844,-38.574,-12.207,0.000,0
1644798750.988,-32.227,-279.297,-38.574,-32.227,0.000,0
1644798750.992,-17.090,278.320,-33.691,-34.668,0.000,0
1644798750.996,-10.254,419.922,-33.203,-23.926,0.000,0
1644798751.000,-19.043,-222.168,-35.156,-24.902,0.000,0
1644798751.004,-41.504,-700.684,-34.180,-22.461,0.000,0
1644798751.008,-36.621,-124.512,-28.320,-10.742,0.000,0
1644798751.012,-10.254,305.664,-23.438,-20.020,0.000,0
1644798751.015,-11.230,191.406,-21.484,-25.391,0.000,0
1644798751.019,-18.555,40.039,-24.902,-13.184,0.000,0
1644798751.023,-26.367,-43.457,-30.273,-23.438,0.000,0
1644798751.028,-33.203,-110.352,-31.738,-33.203,0.000,0
1644798751.031,-22.949,40.527,-27.344,-36.133,0.000,0
1644798751.035,-11.230,277.832,-23.438,-30.762,0.000,0
1644798751.039,-23.926,253.906,-26.855,-25.391,0.000,0
1644798751.043,-41.992,-245.605,-29.297,-22.949,0.000,0
1644798751.047,-38.574,-504.395,-29.297,-19.043,0.000,0
1644798751.051,-25.879,-192.871,-27.832,-36.133,0.000,0
1644798751.055,-13.672,191.406,-22.461,-33.203,0.000,0
1644798751.058,-18.555,173.340,-23.438,-13.672,0.000,0
1644798751.062,-40.039,-379.883,-28.320,-6.836,0.000,0
1644798751.066,-47.363,-365.234,-29.297,-23.438,0.000,0
1644798751.070,-27.832,142.090,-27.344,-25.879,0.000,0
1644798751.074,-10.742,263.672,-30.273,-21.484,0.000,0
1644798751.078,-18.066,122.559,-31.738,-41.992,0.000,0
1644798751.082,-31.738,7.812,-33.203,-41.504,0.000,0
1644798751.086,-40.527,-106.445,-36.621,-35.156,0.000,0
1644798751.090,-27.344,-94.727,-32.715,-30.273,0.000,0
1644798751.094,-3.418,-0.977,-33.691,-18.066,0.000,0
1644798751.098,-8.789,94.238,-33.203,-21.484,0.000,0
1644798751.101,-38.574,-66.895,-35.645,-31.738,0.000,0
1644798751.105,-48.340,-608.398,-37.598,-38.086,0.000,0
1644798751.109,-33.203,-560.547,-33.691,-43.945,0.000,0
1644798751.113,-27.344,314.941,-31.250,-33.203,0.000,0
1644798751.117,-28.809,421.387,-28.320,-12.207,0.000,0
1644798751.121,-33.691,-27.344,-32.715,-18.555,0.000,0
1644798751.125,-44.434,-228.516,-37.109,-29.785,0.000,0
1644798751.129,-31.738,38.574,-31.738,-43.457,0.000,0
1644798751.133,-16.113,277.832,-30.273,-36.621,0.000,0
1644798751.137,-20.996,188.477,-29.297,-14.648,0.000,0
1644798751.141,-27.344,-90.332,-33.203,-15.625,0.000,0
1644798751.144,-42.969,-411.133,-39.062,-29.785,0.000,0
1644798751.148,-39.062,-291.016,-36.621,-41.016,0.000,0
1644798751.152,-22.949,-229.492,-34.668,-24.414,0.000,0
1644798751.156,-37.598,33.203,-36.621,-20.508,0.000,0
1644798751.160,-50.293,233.887,-38.574,-20.996,0.000,0
1644798751.164,-48.340,-167.969,-34.668,-5.371,0.000,0
1644798751.168,-37.109,-148.926,-34.668,-17.578,0.000,0
1644798751.172,-24.902,341.797,-36.621,-36.621,0.000,0
1644798751.176,-21.484,505.371,-32.227,-30.762,0.000,0
1644798751.180,-29.297,124.023,-34.180,-35.156,0.000,0
1644798751.184,-50.293,-260.254,-39.062,-51.758,0.000,0
1644798751.187,-47.852,-287.598,-36.133,-55.664,0.000,0
1644798751.191,-19.043,32.227,-32.227,-46.387,0.000,0
1644798751.195,-14.160,-64.941,-34.668,-16.602,0.000,0
1644798751.199,-29.297,-321.289,-33.203,-4.395,0.000,0
1644798751.203,-42.480,-1.465,-33.691,-28.320,0.000,0
1644798751.207,-53.223,15.625,-40.039,-37.598,0.000,0
1644798751.210,-45.410,97.168,-34.180,-36.133,0.000,0
1644798751.215,-26.367,319.824,-28.809,-20.996,0.000,0
1644798751.219,-22.461,247.559,-31.738,-4.395,0.000,0
1644798751.223,-32.227,-47.852,-29.785,2.930,0.000,0
1644798751.226,-39.062,-201.172,-30.762,-19.531,0.000,0
1644798751.230,-29.297,93.262,-33.691,-28.809,0.000,0
1644798751.234,-17.090,239.258,-31.250,-22.461,0.000,0
1644798751.238,-26.855,106.445,-29.785,-25.391,0.000,0
1644798751.242,-42.480,-485.840,-38.086,-21.484,0.000,0
1644798751.246,-50.293,-521.973,-44.434,-25.391,0.000,0
1644798751.250,-40.039,252.441,-39.551,-42.969,0.000,0
1644798751.253,-20.020,298.828,-27.832,-48.340,0.000,0
1644798751.257,-24.414,147.949,-25.879,-34.180,0.000,0
1644798751.262,-36.133,121.094,-32.715,-18.066,0.000,0
1644798751.265,-40.039,-63.965,-37.598,-24.902,0.000,0
1644798751.269,-28.320,-100.098,-37.598,-43.945,0.000,0
1644798751.273,-16.602,121.582,-31.738,-28.809,0.000,0
1644798751.277,-13.184,192.383,-31.250,-24.414,0.000,0
1644798751.281,-22.949,-70.312,-31.738,-35.156,0.000,0
1644798751.285,-36.133,-573.730,-29.297,-34.668,0.000,0
1644798751.289,-32.715,-560.059,-32.715,-26.367,0.000,0
1644798751.292,-17.090,284.180,-30.762,-20.996,0.000,0
1644798751.296,-11.230,481.934,-29.785,-35.156,0.000,0
1644798751.300,-24.902,78.125,-36.621,-50.781,0.000,0
1644798751.304,-48.828,-214.844,-41.016,-57.617,0.000,0
1644798751.308,-43.457,8.301,-34.180,-57.617,0.000,0
1644798751.312,-21.484,252.930,-28.320,-33.203,0.000,0
1644798751.316,-27.832,188.477,-29.297,-42.480,0.000,0
1644798751.320,-40.527,107.422,-31.738,-51.758,0.000,0
1644798751.324,-45.898,-118.164,-32.715,-26.855,0.000,0
1644798751.328,-26.855,-257.812,-32.227,-37.109,0.000,0
1644798751.331,0.977,-365.234,-35.156,-41.992,0.000,0
1644798751.335,-9.277,-186.523,-40.527,-23.926,0.000,0
1644798751.339,-26.855,157.227,-42.480,-27.832,0.000,0
1644798751.343,-39.062,-130.371,-37.598,-10.742,0.000,0
1644798751.347,-44.922,-248.535,-34.668,-31.250,0.000,0
1644798751.351,-25.879,212.402,-32.715,-65.918,0.000,0
1644798751.355,-15.137,468.262,-30.762,-44.922,0.000,0
1644798751.359,-24.414,179.199,-32.715,-28.809,0.000,0
1644798751.363,-38.086,-210.449,-35.156,-20.996,0.000,0
1644798751.367,-34.668,-113.770,-32.715,-18.555,0.000,0
1644798751.371,-20.996,170.898,-32.715,-28.809,0.000,0
1644798751.374,-22.461,-37.598,-33.691,-22.949,0.000,0
1644798751.378,-36.621,-206.543,-35.156,-22.461,0.000,0
1644798751.382,-50.781,-25.391,-33.691,-31.250,0.000,0
1644798751.386,-43.945,-38.086,-33.203,-57.129,0.000,0
1644798751.390,-18.555,-190.430,-35.156,-50.293,0.000,0
1644798751.394,-2.441,-110.840,-31.250,-25.391,0.000,0
1644798751.398,-10.254,313.477,-31.250,-41.504,0.000,0
1644798751.402,-30.762,77.637,-35.156,-45.410,0.000,0
1644798751.406,-40.527,-279.297,-34.668,-42.480,0.000,0
1644798751.410,-32.227,-26.855,-32.227,-51.758,0.000,0
1644798751.414,-15.137,352.051,-30.273,-38.086,0.000,0
1644798751.418,-14.648,280.273,-28.320,-23.438,0.000,0
1644798751.421,-34.180,-244.141,-30.762,-28.809,0.000,0
1644798751.425,-40.039,-492.188,-36.621,-23.438,0.000,0
1644798751.429,-18.555,-157.715,-36.621,-25.391,0.000,0
1644798751.433,-2.930,225.586,-38.086,-33.691,0.000,0
1644798751.437,-9.766,-116.211,-41.504,-11.719,0.000,0
1644798751.441,-21.973,-203.613,-34.180,-1.953,0.000,0
1644798751.445,-17.578,23.438,-29.785,-18.555,0.000,0
1644798751.449,-2.441,-76.660,-34.180,-22.461,0.000,0
1644798751.453,-9.766,0.977,-33.691,-24.902,0.000,0
1644798751.457,-17.578,301.758,-29.297,-26.367,0.000,0
1644798751.461,-25.879,254.395,-32.715,-21.484,0.000,0
1644798751.464,-38.086,-250.488,-39.062,-16.113,0.000,0
1644798751.468,-33.691,-429.688,-37.109,-21.484,0.000,0
1644798751.472,-23.438,48.340,-38.086,-24.902,0.000,0
1644798751.476,-16.113,462.891,-37.109,-19.043,0.000,0
1644798751.480,-23.926,-138.672,-37.598,-8.301,0.000,0
1644798751.484,-37.109,-701.172,-41.504,-15.625,0.000,0
1644798751.488,-28.809,-93.262,-39.062,-39.551,0.000,0
1644798751.491,-7.324,196.777,-33.691,-28.809,0.000,0
1644798751.496,-5.859,147.461,-30.762,0.488,0.000,0
1644798751.500,-16.602,153.320,-34.180,-8.789,0.000,0
1644798751.504,-39.062,-2.441,-38.086,-43.457,0.000,0
1644798751.507,-43.945,-119.629,-39.062,-53.223,0.000,0
1644798751.511,-20.020,-53.223,-38.086,-32.227,0.000,0
1644798751.515,-5.859,71.777,-35.156,-0.977,0.000,0
1644798751.519,-17.090,60.059,-32.715,-13.184,0.000,0
1644798751.523,-39.551,-227.051,-35.645,-34.668,0.000,0
1644798751.527,-38.574,-663.574,-32.227,-34.180,0.000,0
1644798751.531,-23.926,-180.176,-27.832,-24.414,0.000,0
1644798751.534,-20.508,547.363,-27.344,-15.625,0.000,0
1644798751.538,-31.250,269.531,-29.785,-14.648,0.000,0
1644798751.543,-46.875,-123.047,-32.227,-9.766,0.000,0
1644798751.547,-51.270,-94.238,-34.668,-20.508,0.000,0
1644798751.550,-33.691,184.082,-37.598,-43.457,0.000,0
1644798751.554,-24.414,230.469,-35.645,-44.434,0.000,0
1644798751.558,-37.598,104.492,-34.180,-40.039,0.000,0
1644798751.562,-42.480,-195.312,-36.133,-21.484,0.000,0
1644798751.566,-41.992,-278.809,-36.621,-28.809,0.000,0
1644798751.570,-33.203,-275.879,-35.156,-38.086,0.000,0
1644798751.574,-21.484,-260.254,-32.227,-20.020,0.000,0
1644798751.577,-18.555,323.730,-31.250,-21.484,0.000,0
1644798751.581,-28.320,179.199,-31.738,-20.020,0.000,0
1644798751.585,-38.086,-285.156,-30.273,-16.113,0.000,0
1644798751.589,-35.645,-61.523,-31.250,-10.254,0.000,0
1644798751.593,-22.461,405.273,-27.832,17.090,0.000,0
1644798751.597,-21.973,344.727,-30.273,4.395,0.000,0
1644798751.601,-42.480,-16.113,-36.621,-42.969,0.000,0
1644798751.605,-42.969,-254.395,-39.062,-55.176,0.000,0
1644798751.609,-30.273,-192.383,-34.668,-46.875,0.000,0
1644798751.613,-21.484,74.707,-30.273,-33.691,0.000,0
1644798751.616,-20.020,-193.848,-31.738,-15.137,0.000,0
1644798751.620,-38.574,-208.008,-35.645,-27.832,0.000,0
1644798751.624,-52.246,-8.301,-44.922,-47.852,0.000,0
1644798751.628,-37.109,-171.875,-42.969,-36.133,0.000,0
1644798751.632,-26.367,78.613,-34.668,-29.297,0.000,0
1644798751.636,-20.508,399.414,-33.203,-16.113,0.000,0
1644798751.640,-17.578,299.316,-33.203,-15.137,0.000,0
1644798751.644,-32.715,-201.660,-35.156,-32.715,0.000,0
1644798751.648,-39.062,-259.277,-35.156,-38.574,0.000,0
1644798751.652,-23.438,236.816,-31.250,-23.926,0.000,0
1644798751.655,-19.043,261.719,-29.297,-19.531,0.000,0
1644798751.659,-27.832,-214.355,-32.227,-35.645,0.000,0
1644798751.663,-41.992,-683.105,-37.109,-46.387,0.000,0
1644798751.667,-42.969,-194.824,-30.762,-39.551,0.000,0
1644798751.671,-18.555,338.867,-26.855,-17.090,0.000,0
1644798751.675,-8.301,301.758,-30.762,-12.207,0.000,0
1644798751.679,-30.762,215.332,-35.156,-10.742,0.000,0
1644798751.683,-50.293,17.578,-37.109,-19.531,0.000,0
1644798751.687,-33.203,-257.812,-32.715,-24.902,0.000,0
1644798751.691,-6.836,-66.895,-30.273,-26.367,0.000,0
1644798751.694,-3.906,307.129,-29.785,-19.531,0.000,0
1644798751.698,-20.020,283.691,-32.227,-21.973,0.000,0
1644798751.702,-42.969,-187.500,-36.621,-24.414,0.000,0
1644798751.706,-38.086,-776.855,-35.156,-6.836,0.000,0
1644798751.710,-17.578,-486.816,-31.738,-13.184,0.000,0
1644798751.714,-6.836,331.055,-25.879,-29.297,0.000,0
1644798751.718,-7.324,326.172,-26.367,-17.578,0.000,0
1644798751.721,-27.832,-121.582,-31.250,-29.297,0.000,0
1644798751.725,-46.875,-160.645,-37.109,-58.594,0.000,0
1644798751.729,-28.320,182.129,-34.668,-46.387,0.000,0
1644798751.733,-7.324,262.207,-31.250,-28.320,0.000,0
1644798751.737,-17.578,156.250,-35.645,-37.598,0.000,0
1644798751.741,-34.180,43.457,-35.156,-32.715,0.000,0
1644798751.745,-38.086,-241.699,-35.645,-23.926,0.000,0
1644798751.749,-22.461,-414.062,-38.086,-33.203,0.000,0
1644798751.753,-3.418,-125.977,-32.715,-36.621,0.000,0
1644798751.756,-9.277,387.207,-29.785,-24.414,0.000,0
1644798751.760,-25.879,229.492,-33.691,-10.254,0.000,0
1644798751.764,-27.344,-436.035,-37.598,-8.789,0.000,0
1644798751.768,-11.719,-327.148,-33.203,-22.949,0.000,0
1644798751.772,-1.953,372.070,-30.273,-9.277,0.000,0
1644798751.776,-5.859,395.020,-38.086,-3.418,0.000,0
1644798751.780,-20.508,-4.883,-43.457,-17.578,0.000,0
1644798751.784,-41.992,-253.418,-47.852,-39.551,0.000,0
1644798751.788,-32.715,-4.883,-41.016,-50.293,0.000,0
1644798751.792,-10.254,272.949,-32.715,-24.902,0.000,0
1644798751.796,-10.742,98.633,-35.156,-13.672,0.000,0
1644798751.800,-29.297,-188.477,-38.574,-8.789,0.000,0
1644798751.803,-41.992,-354.492,-43.457,-24.902,0.000,1
1644798751.807,-30.762,-285.645,-38.574,-40.039,0.000,0
1644798751.811,-20.996,-118.164,-29.785,-28.320,0.000,0
1644798751.815,-23.926,248.535,-30.762,-23.438,0.000,0
1644798751.819,-22.949,357.422,-33.691,-21.973,0.000,0
1644798751.823,-35.645,-170.410,-37.109,-24.414,0.000,0
1644798751.827,-34.180,-259.277,-41.504,-41.992,0.000,0
1644798751.831,-18.066,282.227,-37.109,-35.156,0.000,0
1644798751.835,-14.648,518.066,-34.668,-31.738,0.000,0
1644798751.839,-21.484,126.465,-40.039,-17.578,0.000,0
1644798751.843,-34.180,-421.387,-42.480,-9.766,0.000,0
1644798751.846,-27.344,-374.023,-37.109,-39.551,0.000,0
1644798751.850,-5.859,198.242,-26.367,-33.203,0.000,0
1644798751.854,2.930,79.102,-27.344,-14.648,0.000,0
1644798751.858,-12.207,-282.715,-31.738,-18.066,0.000,0
1644798751.862,-27.832,-149.414,-33.203,-22.949,0.000,0
1644798751.866,-30.273,-198.730,-32.715,-35.645,0.000,0
1644798751.870,-26.855,48.828,-31.738,-38.574,0.000,0
1644798751.874,-15.137,345.215,-31.738,-24.414,0.000,0
1644798751.878,-19.531,389.648,-29.785,-19.531,0.000,0
1644798751.882,-31.250,22.461,-28.809,-11.719,0.000,0
1644798751.886,-39.551,-281.738,-36.133,-29.785,0.000,0
1644798751.889,-31.250,-126.953,-37.109,-49.805,0.000,0
1644798751.893,-10.254,123.047,-36.621,-36.621,0.000,0
1644798751.897,-13.672,131.348,-41.016,-23.438,0.000,0
1644798751.901,-28.809,-459.961,-40.039,-20.020,0.000,0
1644798751.905,-40.527,-448.730,-36.621,-26.855,0.000,0
1644798751.909,-26.855,188.477,-28.809,-28.320,0.000,0
1644798751.913,-11.719,202.637,-28.320,-13.184,0.000,0
1644798751.917,-17.090,191.406,-33.691,-29.785,0.000,0
1644798751.921,-29.297,25.391,-34.180,-35.156,0.000,0
1644798751.925,-43.945,-199.707,-32.227,-27.344,0.000,0
1644798751.929,-34.668,-70.312,-30.273,-26.367,0.000,0
1644798751.932,-18.555,188.965,-29.297,-15.137,0.000,0
1644798751.936,-20.020,214.844,-32.715,-5.371,0.000,0
1644798751.940,-35.156,-63.477,-36.133,-21.973,0.000,0
1644798751.944,-41.992,-533.691,-28.320,-20.996,0.000,0
1644798751.948,-29.785,-558.105,-25.879,-28.320,0.000,0
1644798751.952,-14.160,339.355,-28.809,-50.293,0.000,0
1644798751.956,-9.766,511.230,-36.133,-39.062,0.000,0
1644798751.959,-30.762,90.332,-38.086,-24.414,0.000,0
1644798751.964,-50.781,-125.000,-34.180,-45.410,0.000,0
1644798751.968,-40.527,50.293,-33.691,-56.641,0.000,0
1644798751.971,-22.461,273.438,-32.227,-26.855,0.000,0
1644798751.975,-18.066,234.863,-27.344,-22.461,0.000,0
1644798751.979,-26.367,40.039,-32.227,-28.809,0.000,0
1644798751.983,-45.410,-345.703,-40.039,-25.391,0.000,0
1644798751.987,-40.039,-321.777,-38.574,-38.086,0.000,0
1644798751.991,-20.020,-323.730,-39.062,-39.551,0.000,0
1644798751.995,-23.926,-44.434,-35.645,-32.227,0.000,0
1644798751.998,-30.762,351.074,-30.273,-36.621,0.000,0
1644798752.002,-35.645,-92.773,-33.691,-27.832,0.000,0
1644798752.006,-35.645,-251.465,-35.645,-38.086,0.000,0
1644798752.011,-22.461,225.098,-30.273,-41.992,0.000,0
1644798752.014,-13.672,461.426,-24.902,-18.066,0.000,0
1644798752.018,-22.461,155.273,-27.832,-6.836,0.000,0
1644798752.022,-35.156,-211.426,-30.762,-2.930,0.000,0
1644798752.026,-34.180,-148.438,-26.367,-7.812,0.000,0
1644798752.030,-23.438,67.871,-23.926,-19.531,0.000,0
1644798752.034,-6.348,-83.496,-26.367,-24.902,0.000,0
1644798752.038,-0.488,-395.508,-28.320,-10.742,0.000,0
1644798752.041,-32.715,-129.883,-29.297,-19.531,0.000,0
1644798752.045,-39.062,-1.953,-31.250,-33.691,0.000,0
1644798752.049,-8.301,23.926,-26.367,-39.551,0.000,0
1644798752.053,-7.812,278.320,-22.461,-30.762,0.000,0
1644798752.057,-25.391,399.902,-25.391,-10.254,0.000,0
1644798752.061,-40.039,75.195,-26.367,-18.555,0.000,0
1644798752.065,-36.133,-319.336,-29.297,-30.273,0.000,0
1644798752.069,-25.391,-34.180,-28.320,-41.504,0.000,0
1644798752.073,-30.273,299.316,-28.320,-35.156,0.000,0
1644798752.077,-32.227,131.836,-31.738,-17.090,0.000,0
1644798752.080,-36.133,-531.738,-29.785,-11.230,0.000,0
1644798752.084,-45.898,-711.426,-30.762,-17.578,0.000,0
1644798752.088,-29.297,63.477,-28.320,-28.320,0.000,0
1644798752.092,-12.207,331.055,-21.973,-20.508,0.000,0
1644798752.096,-22.949,82.031,-29.297,-22.949,0.000,0
1644798752.100,-34.180,-28.320,-36.133,-41.016,0.000,0
1644798752.104,-51.758,-67.871,-37.109,-48.828,0.000,0
1644798752.108,-50.293,-127.930,-34.180,-50.293,0.000,0
1644798752.112,-23.926,57.129,-31.738,-41.504,0.000,0
1644798752.115,-20.020,318.359,-28.809,-13.184,0.000,0
1644798752.119,-39.551,215.332,-28.320,-17.090,0.000,0
1644798752.123,-48.828,-483.398,-32.227,-9.766,0.000,0
1644798752.127,-24.902,-676.270,-31.738,-7.812,0.000,0
1644798752.131,-12.695,165.527,-34.180,-38.086,0.000,0
1644798752.135,-25.391,451.660,-37.109,-32.227,0.000,0
1644798752.139,-31.738,33.691,-37.109,-10.742,0.000,0
1644798752.142,-42.969,-246.582,-43.945,-22.461,0.000,0
1644798752.146,-39.551,-21.484,-42.480,-46.387,0.000,0
1644798752.151,-19.531,254.395,-34.180,-37.109,0.000,0
1644798752.155,-10.742,149.414,-31.738,-27.832,0.000,0
1644798752.159,-27.832,32.715,-32.227,-21.484,0.000,0
1644798752.162,-41.504,-20.996,-30.762,-20.508,0.000,0
1644798752.166,-33.203,-145.020,-32.715,-26.367,0.000,0
1644798752.170,-18.066,-138.672,-29.297,-22.949,0.000,0
1644798752.174,-10.742,-28.809,-25.879,-19.043,0.000,0
1644798752.178,-17.578,63.965,-29.297,-9.277,0.000,0
1644798752.182,-34.668,-159.180,-33.203,-10.742,0.000,0
1644798752.186,-38.574,-520.508,-36.133,-27.832,0.000,0
1644798752.189,-28.809,-60.547,-32.715,-30.273,0.000,0
1644798752.193,-17.090,488.281,-31.738,-20.996,0.000,0
1644798752.198,-16.113,246.582,-39.062,-18.066,0.000,0
1644798752.202,-33.203,-175.293,-42.969,-26.367,0.000,0
1644798752.205,-45.898,-142.578,-41.504,-41.992,0.000,0
1644798752.209,-36.621,142.578,-36.621,-45.410,0.000,0
1644798752.213,-20.996,133.301,-37.109,-32.715,0.000,0
1644798752.217,-27.344,-41.992,-40.039,-34.668,0.000,0
1644798752.221,-45.410,-219.727,-41.504,-31.738,0.000,0
1644798752.225,-51.270,-159.180,-38.574,-43.945,0.000,0
1644798752.229,-28.320,-270.020,-34.180,-42.480,0.000,0
1644798752.232,-18.066,-279.297,-31.250,-5.859,0.000,0
1644798752.236,-27.832,338.867,-34.668,-11.719,0.000,0
1644798752.240,-35.156,183.594,-42.969,-27.832,0.000,0
1644798752.245,-50.293,-263.672,-42.969,-44.922,0.000,0
1644798752.248,-38.086,-77.637,-42.969,-57.129,0.000,0
1644798752.252,-14.160,332.520,-39.551,-33.203,0.000,0
1644798752.256,-31.250,339.844,-44.434,-19.531,0.000,0
1644798752.260,-48.828,-30.273,-51.270,-30.762,0.000,0
1644798752.264,-35.645,-402.832,-45.410,-20.020,0.000,0
1644798752.268,-23.926,-308.105,-38.086,-20.020,0.000,0
1644798752.272,-21.973,3.906,-36.621,-30.762,0.000,0
1644798752.275,-16.113,-222.656,-41.504,-3.418,0.000,0
1644798752.279,-27.832,-185.547,-42.480,-12.207,0.000,0
1644798752.283,-49.316,40.527,-41.016,-39.551,0.000,0
1644798752.287,-37.598,-100.586,-41.504,-42.969,0.000,0
1644798752.291,-11.719,100.586,-34.180,-55.664,0.000,0
1644798752.295,-19.531,414.062,-31.738,-54.688,0.000,0
1644798752.299,-32.227,269.531,-34.668,-38.574,0.000,0
1644798752.303,-47.852,-244.629,-38.574,-41.016,0.000,0
1644798752.307,-43.457,-324.219,-39.062,-44.434,0.000,0
1644798752.311,-15.625,26.855,-33.691,-36.621,0.000,0
1644798752.315,-20.508,210.449,-32.715,-22.949,0.000,0
1644798752.318,-34.180,-143.555,-34.668,-20.508,0.000,0
1644798752.322,-41.504,-602.051,-36.621,-36.133,0.000,0
1644798752.326,-46.387,-122.070,-35.156,-48.828,0.000,0
1644798752.330,-26.367,223.633,-29.297,-35.645,0.000,0
1644798752.334,-13.672,187.988,-27.344,-13.672,0.000,0
1644798752.338,-25.391,195.312,-28.320,-12.207,0.000,0
1644798752.342,-41.504,61.523,-31.738,-34.668,0.000,0
1644798752.346,-46.387,-122.559,-33.691,-43.457,0.000,0
1644798752.350,-27.832,-27.344,-27.832,-30.273,0.000,0
1644798752.354,-10.742,255.859,-21.484,-31.738,0.000,0
1644798752.357,-15.137,146.484,-23.926,-24.414,0.000,0
1644798752.361,-29.297,-211.426,-27.344,-22.949,0.000,0
1644798752.365,-30.273,-695.801,-34.668,-36.133,0.000,0
1644798752.369,-26.367,-317.383,-34.668,-39.551,0.000,0
1644798752.373,-20.508,498.047,-32.227,-30.273,0.000,0
1644798752.377,-20.996,314.941,-37.109,-25.879,0.000,0
1644798752.381,-38.574,-83.496,-40.527,-40.039,0.000,0
1644798752.385,-46.875,-104.980,-43.945,-43.945,0.000,0
1644798752.389,-35.645,39.062,-41.016,-43.457,0.000,0
1644798752.393,-20.996,74.219,-33.691,-52.734,0.000,0
1644798752.396,-25.879,195.801,-34.668,-41.016,0.000,0
1644798752.400,-31.738,120.605,-38.574,-41.016,0.000,0
1644798752.404,-39.062,-253.906,-37.109,-50.293,0.000,0
1644798752.408,-29.297,-451.172,-33.203,-42.480,0.000,0
1644798752.412,-7.812,-266.602,-31.250,-25.879,0.000,0
1644798752.416,-19.531,351.074,-33.691,-29.785,0.000,0
1644798752.420,-41.016,267.578,-41.504,-35.156,0.000,0
1644798752.424,-43.457,-234.375,-44.434,-28.809,0.000,0
1644798752.427,-27.832,-77.637,-39.551,-22.949,0.000,0
1644798752.432,-18.555,380.371,-36.621,-8.789,0.000,0
1644798752.436,-17.090,361.816,-35.645,-12.695,0.000,0
1644798752.439,-25.879,25.391,-41.016,-37.598,0.000,0
1644798752.443,-38.574,-192.383,-40.039,-41.992,0.000,0
1644798752.447,-20.020,-99.121,-29.785,-47.852,0.000,0
1644798752.451,-2.930,21.973,-26.367,-29.297,0.000,0
1644798752.455,-14.648,-66.895,-31.250,-9.766,0.000,0
1644798752.459,-25.391,-167.480,-30.273,-17.090,0.000,0
1644798752.463,-39.551,-202.148,-31.738,-31.250,0.000,0
1644798752.466,-38.574,-155.273,-28.320,-36.621,0.000,0
1644798752.470,-21.484,-22.461,-24.902,-29.297,0.000,0
1644798752.474,-22.461,333.984,-24.414,-18.066,0.000,0
1644798752.478,-33.691,372.070,-23.926,-15.137,0.000,0
1644798752.482,-39.551,-185.059,-29.297,-32.227,0.000,0
1644798752.486,-27.832,-340.332,-36.133,-42.480,0.000,0
1644798752.490,-16.113,194.824,-31.738,-17.578,0.000,0
1644798752.494,-16.113,449.707,-23.438,-8.301,0.000,0
1644798752.498,-23.926,-98.145,-29.785,-20.020,0.000,0
1644798752.501,-35.156,-587.891,-40.039,-27.832,0.000,0
1644798752.505,-41.016,-223.145,-34.180,-48.828,0.000,0
1644798752.509,-22.949,35.645,-27.832,-41.992,0.000,0
1644798752.513,-2.441,83.984,-23.926,-21.973,0.000,0
1644798752.517,-17.090,177.734,-22.461,-18.555,0.000,0
1644798752.521,-41.992,115.723,-24.902,-4.883,0.000,0
1644798752.525,-53.711,-96.191,-29.297,-7.812,0.000,0
1644798752.529,-37.598,-40.527,-29.785,-31.738,0.000,1
1644798752.533,-15.137,247.559,-27.832,-28.320,0.000,0
1644798752.537,-19.043,384.277,-25.879,-24.414,0.000,0
1644798752.541,-33.691,-5.859,-31.738,-26.855,0.000,0
1644798752.545,-38.086,-491.699,-38.574,-39.062,0.000,0
1644798752.548,-32.715,-286.133,-33.203,-44.434,0.000,0
1644798752.552,-24.414,127.441,-30.273,-25.879,0.000,0
1644798752.556,-25.391,147.461,-32.715,-22.949,0.000,0
1644798752.560,-33.203,-258.789,-30.273,-22.461,0.000,0
1644798752.564,-41.504,-375.488,-31.250,-22.461,0.000,0
1644798752.568,-38.086,23.438,-31.250,-31.250,0.000,0
1644798752.572,-18.555,255.859,-26.855,-8.301,0.000,0
1644798752.576,-16.602,212.891,-30.273,-11.719,0.000,0
1644798752.580,-33.691,148.438,-36.133,-23.926,0.000,0
1644798752.584,-32.715,-70.312,-41.504,-20.020,0.000,0
1644798752.588,-24.902,-140.625,-39.551,-37.109,0.000,0
1644798752.591,-19.043,-48.340,-36.621,-35.645,0.000,0
1644798752.595,-20.508,166.992,-36.133,-15.137,0.000,0
1644798752.599,-27.344,250.977,-36.133,-0.977,0.000,0
1644798752.603,-24.414,-437.500,-41.016,-10.742,0.000,0
1644798752.607,-26.367,-655.762,-46.387,-38.574,0.000,0
1644798752.611,-15.625,251.465,-39.551,-45.898,0.000,0
1644798752.615,-1.953,454.590,-33.203,-26.367,0.000,0
1644798752.619,-20.996,68.359,-33.203,-22.949,0.000,0
1644798752.623,-45.898,-240.723,-34.668,-47.363,0.000,0
1644798752.627,-47.363,-210.938,-36.133,-41.016,0.000,0
1644798752.631,-20.508,125.000,-37.598,-19.531,0.000,0
1644798752.634,-16.113,228.027,-42.969,-19.531,0.000,0
1644798752.638,-36.133,1.953,-45.410,-31.250,0.000,0
1644798752.642,-44.922,-374.512,-42.480,-33.691,0.000,0
1644798752.646,-43.457,-351.074,-43.457,-28.809,0.000,0
1644798752.650,-27.832,-300.781,-44.434,-27.344,0.000,0
1644798752.654,-11.719,51.270,-40.527,-22.461,0.000,0
1644798752.658,-14.160,434.570,-38.574,-12.695,0.000,0
1644798752.661,-33.203,-85.938,-41.504,-11.230,0.000,0
1644798752.666,-42.969,-276.855,-41.504,-37.109,0.000,0
1644798752.670,-26.367,210.449,-40.527,-63.965,0.000,0
1644798752.674,-12.695,469.238,-34.180,-44.434,0.000,0
1644798752.677,-8.789,192.383,-28.809,-28.320,0.000,0
1644798752.681,-20.996,-232.910,-29.785,-34.180,0.000,0
1644798752.685,-32.715,-366.699,-33.203,-24.902,0.000,0
1644798752.689,-21.484,-98.633,-33.203,-26.367,0.000,0
1644798752.693,-7.812,-65.918,-34.180,-34.180,0.000,0
1644798752.697,-9.766,-257.812,-34.668,-13.184,0.000,0
1644798752.701,-34.180,-4.395,-32.227,-31.250,0.000,0
1644798752.704,-53.711,-11.230,-33.691,-41.016,0.000,0
1644798752.708,-23.438,6.348,-31.738,-35.645,0.000,0
1644798752.713,2.930,294.922,-27.832,-30.762,0.000,0
1644798752.717,-13.672,437.500,-32.715,-22.949,0.000,0
1644798752.720,-35.156,72.266,-37.109,-26.855,0.000,0
1644798752.724,-47.363,-284.668,-37.598,-39.062,0.000,0
1644798752.728,-29.785,-26.855,-35.645,-44.434,0.000,0
1644798752.732,-9.277,160.156,-35.645,-19.531,0.000,0
1644798752.736,-17.578,116.211,-33.203,-21.484,0.000,0
1644798752.740,-25.879,-535.156,-33.203,-33.203,0.000,0
1644798752.744,-35.156,-778.320,-36.621,-37.598,0.000,0
1644798752.747,-32.227,68.848,-34.180,-32.715,0.000,0
1644798752.751,-6.836,313.477,-34.180,-16.602,0.000,0
1644798752.755,2.930,212.891,-35.645,-12.207,0.000,0
1644798752.759,-18.066,170.410,-29.297,-1.465,0.000,0
1644798752.763,-40.039,-12.207,-30.762,-6.348,0.000,0
1644798752.767,-32.227,-145.020,-31.250,-21.973,0.000,0
1644798752.771,-14.648,87.402,-27.832,-21.484,0.000,0
1644798752.775,-15.137,381.836,-33.203,-28.320,0.000,0
1644798752.779,-24.414,108.398,-37.598,-36.621,0.000,0
1644798752.783,-33.691,-528.320,-39.551,-36.621,0.000,0
1644798752.786,-31.738,-646.484,-33.203,-42.969,0.000,0
1644798752.790,-14.160,178.223,-21.484,-32.227,0.000,0
1644798752.794,-0.488,531.250,-22.949,-16.602,0.000,0
1644798752.798,-7.324,104.004,-34.668,-17.090,0.000,0
1644798752.802,-27.832,-298.340,-32.227,-20.508,0.000,0
1644798752.806,-26.367,-72.754,-26.367,-29.785,0.000,0
1644798752.810,-9.277,253.906,-25.391,-35.156,0.000,0
1644798752.814,-11.719,249.512,-24.414,-26.855,0.000,0
1644798752.818,-25.879,198.730,-27.344,-15.625,0.000,0
1644798752.822,-39.062,-45.410,-30.273,-17.090,0.000,0
1644798752.825,-40.527,-255.859,-29.785,-28.320,0.000,0
1644798752.829,-21.484,-473.145,-26.367,-23.438,0.000,0
1644798752.833,-20.020,-177.734,-26.367,-26.367,0.000,0
1644798752.837,-33.691,388.672,-29.297,-41.992,0.000,0
1644798752.841,-44.434,2.441,-36.621,-42.969,0.000,0
1644798752.845,-43.945,-254.395,-37.598,-43.945,0.000,0
1644798752.849,-32.227,169.434,-33.691,-45.898,0.000,0
1644798752.853,-33.691,484.863,-34.180,-37.109,0.000,0
1644798752.857,-31.250,203.613,-32.715,-10.742,0.000,0
1644798752.861,-35.156,-270.020,-37.598,-18.066,0.000,0
1644798752.864,-51.270,-227.051,-39.062,-45.898,0.000,0
1644798752.868,-35.645,123.535,-37.109,-46.875,0.000,0
1644798752.872,-17.090,-34.668,-38.574,-32.715,0.000,0
1644798752.876,-26.367,-274.902,-39.062,-27.344,0.000,0
1644798752.880,-44.434,41.504,-40.039,-34.180,0.000,0
1644798752.884,-50.293,1.465,-38.574,-39.551,0.000,0
1644798752.888,-34.180,-146.484,-38.086,-43.945,0.000,0
1644798752.891,-17.090,159.668,-38.086,-41.504,0.000,0
1644798752.895,-18.555,425.781,-37.109,-39.062,0.000,0
1644798752.900,-33.691,130.859,-41.504,-38.086,0.000,0
1644798752.904,-46.387,-283.691,-43.945,-32.715,0.000,0
1644798752.908,-30.273,-125.977,-38.574,-41.504,0.000,0
1644798752.911,-11.230,316.406,-36.621,-55.664,0.000,0
1644798752.915,-20.996,313.965,-42.480,-35.156,0.000,0
1644798752.919,-43.945,-169.922,-45.898,-18.555,0.000,0
1644798752.923,-53.711,-491.211,-39.551,-41.992,0.000,0
1644798752.927,-46.875,-287.598,-37.598,-50.293,0.000,0
1644798752.931,-33.691,54.688,-38.574,-33.691,0.000,0
1644798752.935,-24.902,-47.363,-36.621,-25.391,0.000,0
1644798752.938,-32.227,-30.762,-33.203,-28.320,0.000,0
1644798752.942,-46.875,26.367,-32.227,-30.762,0.000,0
1644798752.947,-42.480,-143.066,-35.156,-46.387,0.000,0
1644798752.951,-31.250,95.215,-33.691,-54.688,0.000,0
1644798752.954,-25.879,394.531,-30.762,-33.691,0.000,0
1644798752.958,-31.250,281.738,-35.156,-19.043,0.000,0
1644798752.962,-41.504,-198.730,-42.480,-26.855,0.000,0
1644798752.966,-38.574,-449.707,-38.574,-37.598,0.000,0
1644798752.970,-20.996,-51.270,-29.297,-30.762,0.000,0
1644798752.974,-15.137,378.906,-28.320,-32.227,0.000,0
1644798752.978,-31.250,-73.242,-34.180,-20.996,0.000,0
1644798752.981,-54.688,-620.605,-34.668,-19.531,0.000,0
1644798752.985,-53.711,-115.723,-30.762,-57.129,0.000,0
1644798752.989,-27.344,298.340,-32.715,-55.664,0.000,0
1644798752.994,-15.625,279.297,-34.180,-33.203,0.000,0
1644798752.998,-21.484,246.094,-30.273,-18.066,0.000,0
1644798753.002,-40.527,86.914,-33.691,-7.812,0.000,0
1644798753.005,-43.457,-128.418,-34.180,-23.438,0.000,0
1644798753.009,-20.508,-26.367,-32.715,-31.738,0.000,0
1644798753.013,-10.742,102.051,-29.785,-20.508,0.000,0
1644798753.017,-19.043,60.059,-27.832,-0.488,0.000,0
1644798753.021,-26.367,-158.203,-34.668,-4.883,0.000,0
1644798753.025,-26.855,-662.109,-36.621,-32.715,0.000,0
1644798753.029,-23.438,-250.488,-31.738,-45.410,0.000,0
1644798753.032,-11.230,496.094,-34.668,-34.180,0.000,0
1644798753.036,-9.277,222.656,-36.621,-13.672,0.000,0
1644798753.041,-32.227,-105.469,-36.621,-24.414,0.000,0
1644798753.045,-41.016,-116.699,-36.133,-47.363,0.000,0
1644798753.048,-31.250,147.461,-33.203,-52.246,0.000,0
1644798753.052,-20.020,234.375,-34.180,-33.203,0.000,0
1644798753.056,-21.973,168.457,-37.598,-22.949,0.000,0
1644798753.060,-37.109,-57.617,-37.598,-22.461,0.000,0
1644798753.064,-41.016,-270.508,-36.133,-36.621,0.000,0
1644798753.068,-19.043,-244.141,-31.738,-44.434,0.000,0
1644798753.072,-6.836,3.906,-28.320,-21.973,0.000,0
1644798753.075,-15.625,410.645,-29.785,-17.090,0.000,0
1644798753.079,-31.738,323.730,-27.344,-32.715,0.000,0
1644798753.083,-38.086,-475.098,-30.762,-40.039,0.000,0
1644798753.087,-36.133,-633.789,-34.668,-26.855,0.000,0
1644798753.091,-11.719,276.855,-35.645,-21.484,0.000,0
1644798753.095,-3.906,306.152,-40.039,-29.785,0.000,0
1644798753.099,-25.879,7.324,-36.621,-20.020,0.000,0
1644798753.103,-35.156,-159.668,-34.180,-14.160,0.000,0
1644798753.107,-36.621,-241.699,-35.645,-35.645,0.000,0
1644798753.111,-23.926,15.137,-35.156,-31.250,0.000,0
1644798753.115,-13.672,-167.480,-32.227,-9.766,0.000,0
1644798753.118,-30.273,-148.926,-29.785,-19.043,0.000,0
1644798753.122,-54.199,89.355,-30.273,-14.160,0.000,0
1644798753.126,-44.434,-105.469,-27.344,-21.484,0.000,0
1644798753.130,-28.320,69.824,-24.414,-46.875,0.000,0
1644798753.134,-27.832,402.832,-25.391,-43.945,0.000,0
1644798753.138,-26.855,348.633,-26.855,-30.762,0.000,0
1644798753.142,-40.527,-179.688,-28.320,-37.109,0.000,0
1644798753.146,-47.852,-307.129,-29.785,-57.617,0.000,0
1644798753.150,-29.785,127.441,-32.715,-48.828,0.000,0
1644798753.154,-6.836,208.984,-29.297,-28.809,0.000,0
1644798753.157,-9.277,-160.156,-26.855,-15.625,0.000,0
1644798753.161,-28.809,-588.867,-34.180,-14.160,0.000,0
1644798753.165,-38.086,-174.805,-34.180,-26.855,0.000,0
1644798753.169,-20.020,276.855,-33.691,-24.902,0.000,0
1644798753.173,-7.812,235.840,-35.156,-15.137,0.000,0
1644798753.177,-13.672,184.082,-31.738,-7.324,0.000,0
1644798753.181,-26.855,103.516,-30.762,-15.625,0.000,0
1644798753.185,-33.691,-108.887,-32.227,-8.301,0.000,0
1644798753.189,-18.066,-91.797,-34.180,-13.184,0.000,0
1644798753.193,-11.230,246.582,-37.109,-33.691,0.000,0
1644798753.196,-17.090,355.957,-39.062,-29.785,0.000,0
1644798753.200,-27.832,-83.496,-39.551,-26.855,0.000,0
1644798753.204,-32.715,-750.000,-40.039,-14.160,0.000,0
1644798753.208,-29.297,-528.809,-34.668,-10.254,0.000,0
1644798753.212,-21.973,199.707,-30.273,-36.133,0.000,0
1644798753.216,-18.555,222.168,-33.691,-42.480,0.000,0
1644798753.220,-36.133,-1.953,-38.574,-41.992,0.000,0
1644798753.224,-45.898,-87.891,-39.062,-41.504,0.000,0
1644798753.228,-29.297,83.008,-38.574,-28.809,0.000,0
1644798753.232,-3.418,193.359,-31.250,-14.160,0.000,0
1644798753.235,-3.906,186.035,-24.414,-10.254,0.000,0
1644798753.239,-28.320,151.855,-25.879,-18.066,0.000,0
1644798753.243,-34.180,-55.664,-28.809,-31.738,0.000,0
1644798753.247,-20.996,-422.852,-29.297,-28.809,0.000,0
1644798753.251,-11.230,-333.984,-23.926,-13.672,0.000,0
1644798753.255,-12.207,334.473,-21.973,-14.648,0.000,0
1644798753.259,-24.414,315.430,-25.879,-17.090,0.000,0
1644798753.262,-40.527,-270.020,-35.156,-22.949,0.000,0
1644798753.266,-29.785,-265.137,-36.133,-43.945,0.000,0
1644798753.270,-21.973,142.090,-30.273,-41.504,0.000,0
