timestamps,TP9,AF7,AF8,TP10,Right AUX
1644798597.982,0.000,0.000,0.000,0.000,0.000
1644798597.986,0.000,0.977,-0.977,0.000,0.000
1644798597.990,-2.441,-29.297,2.441,-1.465,0.000
1644798597.994,4.395,55.176,-8.789,1.465,0.000
1644798597.997,-24.902,-301.270,27.832,-10.742,0.000
1644798598.001,-69.824,-977.051,36.133,-42.480,0.000
1644798598.005,-55.176,-858.887,-23.926,-53.711,0.000
1644798598.009,-39.062,-455.078,-20.508,-38.574,0.000
1644798598.013,-47.363,-320.312,-18.066,-16.113,0.000
1644798598.017,-62.500,-550.293,-26.367,-11.719,0.000
1644798598.021,-71.289,-933.594,-36.133,-31.738,0.000
1644798598.024,-59.082,-835.938,-33.203,-34.668,0.000
1644798598.028,-44.922,-466.797,-29.297,-20.508,0.000,0
1644798598.032,-53.223,-292.480,-39.062,-25.391,0.000,0
1644798598.036,-74.707,-412.598,-42.480,-26.855,0.000,0
1644798598.039,-87.891,-779.785,-41.504,-29.297,0.000,0
1644798598.043,-72.754,-841.797,-37.109,-39.062,0.000,0
1644798598.047,-43.457,-702.148,-33.691,-30.762,0.000,0
1644798598.051,-42.480,-643.066,-32.227,-18.555,0.000,0
1644798598.055,-54.199,-656.738,-30.273,-6.836,0.000,0
1644798598.059,-63.965,-861.328,-38.086,-11.230,0.000,0
1644798598.062,-52.246,-828.125,-34.668,-36.621,0.000,0
1644798598.066,-42.969,-387.695,-34.180,-41.992,0.000,0
1644798598.070,-40.527,-663.086,-38.574,-18.555,0.000,0
1644798598.075,-53.711,-899.902,-34.180,-13.184,0.000,0
1644798598.079,-75.195,-714.844,-41.504,-36.621,0.000,0
1644798598.083,-66.406,-721.680,-41.504,-52.246,0.000,0
1644798598.087,-39.551,-380.371,-36.133,-42.969,0.000,0
1644798598.091,-34.668,-110.352,-35.645,-13.184,0.000,0
1644798598.095,-51.270,-396.973,-35.645,-16.602,0.000,0
1644798598.099,-66.895,-902.344,-34.180,-15.625,0.000,0
1644798598.102,-74.219,-1000.000,-30.762,-17.578,0.000,0
1644798598.106,-58.594,-525.391,-29.785,-31.738,0.000,0
1644798598.110,-46.875,-206.543,-29.297,-23.438,0.000,0
1644798598.114,-47.363,-259.766,-33.203,-27.832,0.000,0
1644798598.118,-62.500,-437.500,-39.062,-42.969,0.000,0
1644798598.143,-78.613,-647.949,-41.016,-54.688,0.000,0
1644798598.147,-58.594,-384.766,-34.668,-57.129,0.000,0
1644798598.152,-41.992,-42.969,-29.785,-40.039,0.000,0
1644798598.156,-40.039,38.086,-30.762,-18.555,0.000,0
1644798598.161,-63.477,-382.812,-36.133,-23.438,0.000,1
1644798598.165,-87.402,-883.301,-39.062,-37.109,0.000,0
1644798598.170,-56.641,-1000.000,-34.668,-38.086,0.000,0
1644798598.174,-42.969,-818.359,-37.109,-35.645,0.000,0
1644798598.178,-62.988,-222.168,-40.039,-41.504,0.000,0
1644798598.183,-73.242,-229.980,-37.598,-41.504,0.000,0
1644798598.187,-69.336,-602.539,-39.062,-50.293,0.000,0
1644798598.192,-60.547,-400.879,-37.598,-49.316,0.000,0
1644798598.230,-48.828,-147.461,-34.668,-37.109,0.000,0
1644798598.235,-35.156,-154.297,-39.062,-33.691,0.000,0
1644798598.240,-61.035,-254.883,-44.434,-31.250,0.000,0
1644798598.246,-77.637,-558.105,-46.387,-40.527,0.000,0
1644798598.251,-52.246,-513.184,-40.039,-50.293,0.000,0
1644798598.256,-40.039,-311.035,-33.203,-40.039,0.000,0
1644798598.261,-41.016,-283.203,-33.691,-28.320,0.000,0
1644798598.266,-50.781,-541.016,-41.504,-24.902,0.000,0
1644798598.271,-57.617,-865.723,-41.504,-33.203,0.000,0
1644798598.277,-46.387,-627.930,-37.598,-49.805,0.000,0
1644798598.282,-36.621,-106.445,-36.133,-34.668,0.000,0
1644798598.287,-36.133,136.719,-37.598,-26.855,0.000,0
1644798598.324,-42.969,21.973,-37.109,-34.668,0.000,0
1644798598.329,-47.852,-600.098,-41.016,-25.879,0.000,0
1644798598.335,-52.734,-1000.000,-45.410,-31.250,0.000,0
1644798598.341,-55.664,-514.160,-42.969,-44.922,0.000,0
1644798598.346,-49.805,-143.555,-41.016,-26.367,0.000,0
1644798598.352,-59.570,-397.461,-39.551,-14.648,0.000,0
1644798598.358,-74.707,-753.906,-37.598,-21.484,0.000,0
1644798598.364,-71.777,-604.980,-33.203,-37.598,0.000,0
1644798598.369,-57.617,-132.812,-33.691,-46.875,0.000,0
1644798598.375,-53.223,192.871,-36.133,-28.809,0.000,0
1644798598.381,-49.805,100.586,-36.133,-20.508,0.000,0
1644798598.386,-59.570,-351.562,-38.574,-34.180,0.000,0
1644798598.412,-54.688,-563.477,-40.039,-39.551,0.000,0
1644798598.418,-29.785,-207.520,-41.016,-44.434,0.000,0
1644798598.423,-37.598,149.414,-33.691,-43.457,0.000,0
1644798598.429,-56.641,103.516,-32.715,-29.785,0.000,0
1644798598.435,-75.684,-326.172,-44.922,-29.297,0.000,0
1644798598.441,-64.941,-834.961,-40.039,-39.551,0.000,0
1644798598.447,-35.156,-766.602,-28.809,-37.109,0.000,0
1644798598.453,-44.434,-307.129,-25.391,-21.973,0.000,0
1644798598.459,-51.270,-428.711,-26.855,-24.414,0.000,0
1644798598.465,-66.406,-803.711,-29.297,-28.320,0.000,0
1644798598.471,-78.125,-694.336,-31.738,-41.504,0.000,0
1644798598.477,-46.875,-311.523,-24.414,-36.621,0.000,0
1644798598.498,-34.180,137.207,-20.020,-22.461,0.000,0
1644798598.504,-40.039,247.070,-30.273,-22.949,0.000,0
1644798598.510,-49.805,-108.398,-37.109,-20.996,0.000,0
1644798598.516,-68.359,-524.414,-37.109,-25.879,0.000,0
1644798598.522,-65.430,-379.883,-33.691,-38.086,0.000,0
1644798598.528,-41.016,-212.891,-33.691,-21.973,0.000,0
1644798598.534,-45.410,-206.055,-31.250,-16.602,0.000,0
1644798598.541,-68.848,-297.852,-29.785,-31.738,0.000,0
1644798598.547,-61.523,-600.586,-34.180,-27.344,0.000,0
1644798598.553,-39.062,-606.934,-37.598,-26.855,0.000,0
1644798598.559,-31.250,-273.438,-34.180,-28.320,0.000,0
1644798598.565,-38.574,60.059,-29.297,-23.438,0.000,0
1644798598.576,-43.945,-71.777,-30.273,-16.602,0.000,0
1644798598.582,-57.129,-553.711,-35.645,-31.250,0.000,0
1644798598.588,-54.688,-497.559,-31.250,-41.016,0.000,0
1644798598.594,-41.016,-100.586,-24.902,-22.949,0.000,0
1644798598.601,-39.551,-270.508,-32.715,-17.578,0.000,0
1644798598.607,-52.734,-545.410,-38.574,-24.902,0.000,0
1644798598.613,-66.406,-899.902,-37.109,-25.391,0.000,0
1644798598.619,-57.617,-908.203,-33.691,-26.367,0.000,0
1644798598.625,-47.363,-236.816,-35.156,-31.738,0.000,0
1644798598.632,-46.387,186.523,-36.621,-19.531,0.000,0
1644798598.638,-52.246,-12.695,-31.250,-2.930,0.000,0
1644798598.644,-61.523,-436.035,-28.320,-16.113,0.000,0
1644798598.648,-49.316,-698.730,-35.156,-40.527,0.000,0
1644798598.654,-36.621,-438.965,-36.621,-42.969,0.000,0
1644798598.661,-33.203,32.715,-30.762,-23.926,0.000,0
1644798598.667,-44.922,42.969,-26.855,-10.742,0.000,0
1644798598.673,-56.641,-420.410,-29.785,-25.391,0.000,0
1644798598.679,-55.176,-849.609,-36.133,-45.898,0.000,0
1644798598.685,-37.109,-558.594,-38.086,-34.180,0.000,0
1644798598.691,-26.367,24.414,-36.621,-19.531,0.000,0
1644798598.698,-40.039,100.586,-41.992,-30.762,0.000,0
1644798598.704,-63.477,-335.449,-46.875,-24.902,0.000,0
1644798598.710,-66.406,-579.102,-41.016,-38.574,0.000,0
1644798598.716,-38.574,-816.895,-39.062,-34.180,0.000,0
1644798598.713,-21.484,-779.297,-33.691,-5.859,0.000,0
1644798598.719,-22.949,-138.672,-29.297,-2.441,0.000,0
1644798598.726,-40.039,-277.832,-40.527,-9.277,0.000,0
1644798598.732,-59.570,-712.891,-42.969,-35.645,0.000,0
1644798598.738,-37.598,-526.367,-30.762,-28.809,0.000,0
1644798598.744,-16.602,-198.242,-33.203,-13.184,0.000,0
1644798598.750,-25.391,-217.285,-38.086,-10.254,0.000,0
1644798598.756,-31.738,-550.293,-31.738,-1.465,0.000,0
1644798598.762,-36.621,-691.895,-29.785,3.418,0.000,0
1644798598.768,-26.855,-264.160,-33.203,-9.766,0.000,0
1644798598.774,-17.578,137.695,-36.133,-16.602,0.000,0
1644798598.780,-21.973,212.402,-34.180,-11.230,0.000,0
1644798598.776,-31.738,-135.742,-34.180,2.441,0.000,0
1644798598.782,-32.227,-556.641,-39.062,-0.977,0.000,0
1644798598.788,-27.832,-356.445,-38.574,-19.043,0.000,0
1644798598.794,-16.602,119.141,-35.156,-14.160,0.000,0
1644798598.800,-19.043,166.504,-37.109,-14.160,0.000,0
1644798598.806,-44.434,-375.488,-38.086,-19.043,0.000,0
1644798598.812,-50.781,-952.148,-38.086,-20.508,0.000,0
1644798598.818,-40.527,-841.309,-36.133,-23.926,0.000,0
1644798598.824,-34.180,-122.070,-32.715,-23.926,0.000,0
1644798598.830,-26.855,248.047,-29.297,-7.324,0.000,0
1644798598.836,-41.504,-4.395,-29.297,-15.137,0.000,0
1644798598.842,-60.059,-482.910,-35.156,-23.926,0.000,0
1644798598.832,-46.875,-449.219,-33.691,-23.438,0.000,0
1644798598.838,-36.621,-18.066,-31.250,-27.832,0.000,0
1644798598.844,-35.156,189.941,-27.832,-20.508,0.000,0
1644798598.850,-38.574,16.602,-29.297,-16.113,0.000,0
1644798598.855,-41.504,-496.094,-35.156,-14.160,0.000,0
1644798598.861,-38.574,-778.809,-35.645,-19.043,0.000,0
1644798598.867,-25.879,-556.641,-32.715,-23.926,0.000,0
1644798598.873,-13.672,-267.090,-32.227,-15.625,0.000,0
1644798598.879,-30.273,-175.781,-34.180,-11.230,0.000,0
1644798598.885,-53.223,-576.172,-31.738,-9.766,0.000,0
1644798598.891,-47.363,-773.438,-29.785,-20.020,0.000,0
1644798598.897,-25.391,-255.859,-24.902,-20.020,0.000,0
1644798598.883,-18.555,196.289,-31.738,-13.672,0.000,0
1644798598.889,-19.043,-252.930,-39.062,-12.207,0.000,0
1644798598.894,-30.273,-1000.000,-41.992,-15.625,0.000,0
1644798598.900,-47.363,-826.660,-38.086,-44.434,0.000,0
1644798598.906,-31.250,-222.656,-33.203,-46.387,0.000,0
1644798598.912,-23.438,-101.074,-37.109,-24.902,0.000,1
1644798598.918,-34.668,-289.062,-34.668,-19.531,0.000,0
1644798598.923,-49.805,-464.355,-32.227,-27.832,0.000,0
1644798598.929,-51.758,-523.926,-32.715,-20.508,0.000,0
1644798598.935,-33.203,-181.152,-30.762,-20.996,0.000,0
1644798598.941,-17.090,176.758,-32.715,-40.527,0.000,0
1644798598.946,-31.250,173.828,-36.621,-38.086,0.000,0
1644798598.929,-47.852,-337.402,-36.621,-35.645,0.000,0
1644798598.935,-57.617,-737.793,-35.645,-42.480,0.000,0
1644798598.941,-46.387,-333.008,-36.621,-41.504,0.000,0
1644798598.946,-28.320,173.828,-33.203,-17.578,0.000,0
1644798598.952,-39.551,95.703,-35.156,-16.113,0.000,0
1644798598.958,-49.805,-569.336,-43.457,-34.668,0.000,0
1644798598.963,-54.688,-972.168,-39.551,-37.109,0.000,0
1644798598.969,-42.969,-704.102,-29.297,-33.203,0.000,0
1644798598.975,-20.508,-355.957,-26.855,-20.020,0.000,0
1644798598.980,-19.043,-666.504,-27.832,-8.301,0.000,0
1644798598.986,-50.293,-658.203,-27.832,-12.207,0.000,0
1644798598.992,-67.383,-434.570,-32.715,-36.133,0.000,0
1644798598.972,-43.945,-658.691,-34.180,-37.598,0.000,0
1644798598.978,-32.715,-910.156,-36.621,-33.203,0.000,0
1644798598.983,-44.434,-275.391,-35.645,-47.363,0.000,0
1644798598.989,-57.617,-54.688,-31.738,-36.621,0.000,0
1644798598.994,-62.500,-770.020,-39.062,-11.719,0.000,0
1644798599.000,-53.711,-946.289,-41.992,-16.602,0.000,0
1644798599.005,-40.527,-276.367,-31.250,-44.434,0.000,0
1644798599.011,-42.480,235.840,-28.809,-34.668,0.000,0
1644798599.016,-55.176,-260.254,-32.227,-27.832,0.000,0
1644798599.022,-74.219,-684.570,-38.574,-40.039,0.000,0
1644798599.027,-71.777,-373.535,-40.527,-49.316,0.000,0
1644798599.033,-48.828,78.125,-35.645,-44.922,0.000,0
1644798599.016,-39.551,-152.344,-37.598,-25.879,0.000,0
1644798599.021,-52.734,-352.051,-31.738,-19.531,0.000,0
1644798599.027,-74.707,-301.270,-32.715,-21.484,0.000,0
1644798599.032,-71.777,-415.039,-39.551,-39.551,0.000,0
1644798599.038,-50.781,-610.352,-39.551,-53.711,0.000,0
1644798599.043,-41.992,-437.012,-34.180,-30.273,0.000,0
1644798599.048,-46.387,-232.422,-30.762,-19.531,0.000,0
1644798599.054,-62.500,-673.340,-34.668,-35.645,0.000,0
1644798599.059,-63.965,-1000.000,-35.156,-37.598,0.000,0
1644798599.064,-49.805,-625.000,-29.297,-31.250,0.000,0
1644798599.070,-52.734,297.363,-25.879,-35.645,0.000,0
1644798599.075,-68.848,-18.555,-39.062,-29.785,0.000,0
1644798599.056,-72.754,-652.344,-47.363,-36.133,0.000,0
1644798599.062,-62.500,-476.074,-41.016,-53.223,0.000,0
1644798599.067,-65.430,4.395,-28.809,-54.199,0.000,0
1644798599.072,-60.547,-93.750,-29.785,-21.973,0.000,0
1644798599.078,-61.523,-755.371,-39.551,-4.883,0.000,0
1644798599.083,-84.961,-829.590,-42.480,-18.555,0.000,0
1644798599.088,-83.984,-689.453,-38.574,-31.738,0.000,0
1644798599.093,-60.059,-777.832,-34.180,-31.738,0.000,0
1644798599.099,-49.316,-833.008,-36.621,-28.809,0.000,0
1644798599.104,-47.363,-153.809,-34.668,-39.551,0.000,0
1644798599.109,-63.965,-258.789,-33.691,-36.133,0.000,0
1644798599.114,-83.984,-770.508,-35.156,-36.133,0.000,0
1644798599.095,-61.035,-414.551,-29.297,-41.504,0.000,0
1644798599.101,-42.969,270.996,-31.250,-39.551,0.000,0
1644798599.106,-41.992,339.355,-34.180,-33.203,0.000,0
1644798599.111,-42.969,-422.363,-26.367,-28.320,0.000,0
1644798599.116,-59.082,-716.309,-24.902,-32.227,0.000,0
1644798599.121,-68.848,-422.852,-31.250,-43.457,0.000,0
1644798599.126,-54.688,-159.668,-31.250,-40.527,0.000,0
1644798599.132,-35.645,-603.027,-29.297,-20.508,0.000,0
1644798599.137,-44.434,-710.938,-27.344,-11.719,0.000,0
1644798599.142,-75.684,-275.879,-29.785,-36.133,0.000,0
1644798599.147,-65.430,-377.930,-32.715,-33.691,0.000,0
1644798599.152,-26.367,-737.305,-27.832,-5.371,0.000,0
1644798599.132,-35.156,-304.199,-26.855,-17.578,0.000,0
1644798599.137,-60.059,-68.359,-28.320,-15.137,0.000,0
1644798599.142,-70.312,-737.305,-29.297,-20.996,0.000,0
1644798599.147,-57.617,-931.152,-29.785,-40.039,0.000,0
1644798599.152,-42.480,-225.586,-22.461,-35.645,0.000,0
1644798599.157,-43.945,128.906,-22.949,-23.926,0.000,0
1644798599.162,-52.734,-478.027,-33.203,-24.902,0.000,0
1644798599.167,-68.848,-952.148,-34.668,-27.344,0.000,0
1644798599.172,-73.242,-563.965,-28.320,-43.945,0.000,0
1644798599.177,-57.617,135.742,-27.832,-38.086,0.000,0
1644798599.182,-45.410,-186.035,-29.297,-8.789,0.000,0
1644798599.187,-57.617,-731.934,-28.809,-2.930,0.000,0
1644798599.169,-79.102,-327.148,-29.785,-23.438,0.000,0
1644798599.174,-74.707,-293.457,-34.668,-46.875,0.000,0
1644798599.179,-56.152,-371.094,-32.715,-36.133,0.000,0
1644798599.184,-49.805,45.410,-28.320,-26.855,0.000,0
1644798599.188,-64.453,149.414,-36.133,-23.926,0.000,0
1644798599.193,-78.125,-500.488,-39.551,-23.926,0.000,0
1644798599.198,-86.426,-840.820,-38.574,-41.504,0.000,0
1644798599.203,-72.754,-312.012,-34.180,-47.852,0.000,0
1644798599.208,-43.457,405.762,-24.902,-40.527,0.000,0
1644798599.213,-41.992,189.941,-32.715,-35.645,0.000,0
1644798599.218,-64.453,-654.297,-41.016,-43.945,0.000,0
1644798599.223,-70.801,-571.289,-34.668,-42.969,0.000,0
1644798599.205,-45.410,142.578,-28.320,-38.086,0.000,0
1644798599.209,-30.273,157.227,-29.297,-18.555,0.000,0
1644798599.214,-38.574,-750.488,-35.645,-0.977,0.000,0
1644798599.219,-58.594,-818.848,-41.016,-18.555,0.000,0
1644798599.224,-67.383,-286.133,-41.992,-39.551,0.000,0
1644798599.229,-52.246,-536.133,-44.434,-41.016,0.000,0
1644798599.234,-43.457,-879.883,-45.898,-34.180,0.000,0
1644798599.239,-40.527,-325.684,-38.574,-38.086,0.000,0
1644798599.243,-57.129,-45.410,-40.039,-35.645,0.000,0
1644798599.248,-65.918,-664.062,-47.363,-43.457,0.000,0
1644798599.253,-55.664,-464.844,-44.922,-60.547,0.000,0
1644798599.258,-38.574,326.172,-38.574,-46.387,0.000,0
1644798599.240,-33.691,452.637,-37.109,-48.828,0.000,0
1644798599.244,-58.594,-391.602,-43.457,-38.086,0.000,0
1644798599.249,-66.406,-916.992,-39.551,-30.762,0.000,0
1644798599.254,-53.711,-163.574,-35.645,-61.523,0.000,0
1644798599.259,-38.574,352.051,-39.551,-64.941,0.000,0
1644798599.263,-38.086,-373.047,-38.574,-35.645,0.000,0
1644798599.268,-57.617,-915.039,-40.039,-31.250,0.000,0
1644798599.273,-70.801,-631.836,-43.457,-48.828,0.000,0
1644798599.278,-62.988,-578.125,-39.551,-53.711,0.000,0
1644798599.282,-41.992,-307.617,-36.621,-42.969,0.000,0
1644798599.287,-45.898,94.727,-38.086,-34.180,0.000,0
1644798599.292,-64.453,249.023,-34.668,-41.016,0.000,0
1644798599.275,-64.453,-425.781,-33.203,-47.363,0.000,0
1644798599.280,-48.828,-728.516,-34.180,-38.086,0.000,0
1644798599.285,-32.715,72.266,-31.738,-34.668,0.000,0
1644798599.289,-33.691,550.293,-34.180,-39.062,0.000,0
1644798599.294,-46.875,-59.082,-35.645,-24.414,0.000,0
1644798599.299,-65.430,-1000.000,-37.598,-22.461,0.000,0
1644798599.303,-68.359,-626.953,-35.645,-46.875,0.000,0
1644798599.308,-44.434,149.902,-27.832,-59.082,0.000,0
1644798599.313,-35.645,122.559,-27.344,-35.156,0.000,0
1644798599.318,-47.852,35.156,-27.344,-22.949,0.000,0
1644798599.322,-59.570,-160.645,-28.320,-32.715,0.000,0
1644798599.327,-56.152,-233.398,-31.738,-49.316,0.000,0
1644798599.309,-38.086,-563.965,-30.762,-41.504,0.000,0
1644798599.314,-25.879,-746.094,-32.227,-21.484,0.000,0
1644798599.318,-35.645,93.262,-33.203,-26.367,0.000,0
1644798599.323,-60.547,-122.559,-36.133,-34.668,0.000,0
1644798599.327,-62.500,-659.180,-38.574,-46.875,0.000,0
1644798599.332,-32.227,-387.207,-35.156,-41.016,0.000,0
1644798599.337,-20.508,18.555,-31.250,-32.227,0.000,0
1644798599.341,-32.715,0.977,-26.855,-20.996,0.000,0
1644798599.346,-47.852,-729.492,-27.344,-13.672,0.000,0
1644798599.350,-45.898,-800.781,-26.367,-19.043,0.000,0
1644798599.355,-27.344,24.414,-24.902,-31.738,0.000,0
1644798599.360,-16.602,119.629,-27.832,-32.715,0.000,0
1644798599.342,-18.555,-35.645,-21.973,-13.672,0.000,0
1644798599.347,-35.156,-22.461,-24.902,-18.066,0.000,0
1644798599.352,-48.340,-208.008,-34.180,-41.504,0.000,0
1644798599.356,-29.785,-457.520,-27.344,-34.180,0.000,0
1644798599.361,-17.090,-463.867,-26.367,-20.508,0.000,0
1644798599.365,-36.133,-83.984,-33.203,-34.668,0.000,0
1644798599.370,-48.828,-287.598,-36.133,-35.156,0.000,0
1644798599.374,-53.223,-784.668,-35.156,-25.879,0.000,0
1644798599.379,-40.527,-991.211,-27.832,-23.438,0.000,0
1644798599.383,-22.461,-205.078,-20.996,-27.344,0.000,0
1644798599.388,-23.438,441.895,-20.996,-23.438,0.000,0
1644798599.392,-41.016,-363.281,-28.809,-9.766,0.000,0
1644798599.377,-61.523,-844.727,-34.180,-27.344,0.000,0
1644798599.382,-40.527,-175.293,-30.762,-44.922,0.000,0
1644798599.386,-18.066,224.609,-32.715,-36.133,0.000,0
1644798599.391,-32.227,-1.465,-37.109,-19.043,0.000,0
1644798599.395,-44.434,-139.648,-37.598,-10.254,0.000,0
1644798599.400,-57.129,-491.699,-38.574,-25.879,0.000,0
1644798599.404,-55.664,-623.535,-34.668,-38.086,0.000,0
1644798599.409,-33.691,-769.043,-27.344,-19.531,0.000,0
1644798599.413,-28.809,-934.082,-24.902,-2.441,0.000,0
1644798599.418,-53.223,-176.270,-28.809,-20.020,0.000,0
1644798599.422,-70.312,-395.996,-36.621,-20.508,0.000,0
1644798599.427,-50.781,-735.840,-41.016,-34.180,0.000,0
1644798599.412,-24.414,-15.625,-39.551,-30.762,0.000,0
1644798599.416,-26.367,416.992,-33.203,-9.766,0.000,0
1644798599.421,-33.203,102.051,-31.250,-10.742,0.000,0
1644798599.425,-47.852,-355.469,-33.203,-21.973,0.000,0
1644798599.429,-50.781,-300.781,-33.203,-36.621,0.000,0
1644798599.434,-25.391,-48.340,-28.320,-27.344,0.000,0
1644798599.438,-20.020,-237.305,-25.391,-9.766,0.000,0
1644798599.443,-36.133,-333.496,-24.414,-10.742,0.000,0
1644798599.447,-56.641,-149.414,-27.832,-27.344,0.000,0
1644798599.452,-55.664,-212.891,-32.227,-30.273,0.000,0
1644798599.456,-44.434,-548.828,-31.738,-20.508,0.000,0
1644798599.460,-44.434,-371.582,-30.762,-23.438,0.000,0
1644798599.447,-44.434,290.039,-28.809,-33.203,0.000,0
1644798599.451,-49.316,-77.148,-26.855,-33.691,0.000,0
1644798599.456,-53.223,-830.566,-26.855,-34.180,0.000,0
1644798599.460,-41.504,-495.117,-24.414,-34.668,0.000,0
1644798599.464,-27.832,318.848,-21.484,-26.855,0.000,0
1644798599.469,-34.180,43.945,-29.297,-19.531,0.000,0
1644798599.473,-57.129,-756.348,-34.180,-16.113,0.000,0
1644798599.477,-63.477,-913.086,-27.832,-30.273,0.000,0
1644798599.482,-45.898,-134.766,-24.902,-49.316,0.000,0
1644798599.486,-24.414,143.066,-28.320,-30.762,0.000,0
1644798599.491,-19.531,-154.785,-32.227,-15.625,0.000,0
1644798599.495,-45.410,-85.449,-33.203,-35.645,0.000,0
1644798599.484,-62.500,-271.973,-35.156,-53.223,0.000,0
1644798599.488,-40.527,-522.949,-30.762,-40.039,0.000,0
1644798599.492,-26.855,-140.137,-21.484,-30.273,0.000,0
1644798599.497,-35.156,354.980,-22.461,-25.879,0.000,0
1644798599.501,-59.570,83.984,-30.273,-21.484,0.000,0
1644798599.505,-55.664,-733.398,-35.156,-14.648,0.000,0
1644798599.510,-36.133,-779.297,-30.273,-19.043,0.000,0
1644798599.514,-42.969,98.145,-27.344,-28.320,0.000,0
1644798599.518,-42.480,335.449,-32.715,-38.086,0.000,0
1644798599.522,-47.852,-159.668,-34.668,-41.992,0.000,0
1644798599.527,-67.383,-560.059,-37.109,-45.410,0.000,0
1644798599.531,-60.059,-263.672,-34.180,-59.570,0.000,0
1644798599.521,-29.297,169.922,-30.762,-42.480,0.000,0
1644798599.525,-22.461,89.844,-29.785,-23.438,0.000,0
1644798599.529,-42.480,-74.707,-29.297,-30.762,0.000,0
1644798599.534,-47.852,-327.148,-37.598,-46.875,0.000,0
1644798599.538,-45.898,-608.887,-38.574,-46.875,0.000,0
1644798599.542,-38.086,-498.047,-35.156,-25.879,0.000,0
1644798599.547,-25.879,-218.750,-31.250,-18.555,0.000,0
1644798599.551,-31.250,-171.875,-26.367,-18.066,0.000,0
1644798599.555,-53.223,-577.637,-41.016,-24.414,0.000,0
1644798599.559,-55.664,-869.629,-41.992,-29.297,0.000,0
1644798599.564,-36.133,-214.355,-30.762,-28.809,0.000,0
1644798599.568,-23.926,417.480,-30.273,-33.203,0.000,0
1644798599.558,-29.297,-5.859,-31.738,-25.879,0.000,0
1644798599.563,-44.434,-846.191,-36.133,-16.113,0.000,0
1644798599.567,-47.363,-612.793,-33.203,-40.039,0.000,0
1644798599.571,-41.992,42.969,-28.809,-41.016,0.000,0
1644798599.575,-28.809,89.355,-27.832,-24.902,0.000,0
1644798599.580,-27.344,-247.070,-31.738,-20.020,0.000,0
1644798599.584,-51.270,-611.816,-40.039,-33.691,0.000,0
1644798599.588,-49.805,-666.016,-38.574,-49.805,0.000,0
1644798599.592,-16.113,-737.305,-32.715,-31.250,0.000,0
1644798599.597,-19.531,-533.691,-34.668,-14.648,0.000,0
1644798599.601,-36.621,208.008,-37.598,-29.785,0.000,0
1644798599.605,-41.992,-186.523,-41.992,-36.133,0.000,0
1644798599.597,-53.223,-699.219,-39.062,-43.945,0.000,0
1644798599.601,-40.527,-259.277,-37.109,-42.969,0.000,0
1644798599.605,-28.809,296.875,-36.133,-25.879,0.000,0
1644798599.609,-38.086,246.094,-30.762,-24.414,0.000,0
1644798599.613,-51.758,-374.512,-33.203,-19.531,0.000,0
1644798599.618,-44.922,-806.152,-35.645,-38.086,0.000,0
1644798599.622,-27.832,-553.711,-29.297,-46.875,0.000,0
1644798599.626,-31.250,-241.211,-27.344,-20.020,0.000,0
1644798599.630,-34.180,-395.996,-28.809,-11.719,0.000,0
1644798599.634,-52.246,-383.301,-33.203,-20.020,0.000,0
1644798599.639,-60.059,-505.859,-39.062,-34.180,0.000,0
1644798599.643,-31.250,-720.703,-36.133,-34.180,0.000,0
1644798599.636,-16.602,-623.535,-33.203,-18.066,0.000,0
1644798599.640,-23.926,-4.883,-28.320,-16.602,0.000,0
1644798599.644,-34.668,125.488,-32.227,-23.926,0.000,0
1644798599.649,-51.758,-547.852,-36.621,-29.297,0.000,0
1644798599.653,-43.945,-493.652,-31.250,-29.297,0.000,0
1644798599.657,-19.043,-76.172,-28.320,-27.344,0.000,0
1644798599.661,-21.484,3.418,-26.855,-26.855,0.000,0
1644798599.665,-35.645,-477.539,-27.832,-12.207,0.000,0
1644798599.670,-50.293,-943.359,-28.809,-19.531,0.000,0
1644798599.674,-50.781,-377.441,-26.367,-42.480,0.000,0
1644798599.678,-31.250,179.688,-24.414,-44.434,0.000,0
1644798599.682,-31.738,-2.930,-22.949,-32.227,0.000,0
1644798599.675,-42.969,-176.270,-30.762,-27.344,0.000,0
1644798599.679,-52.246,-455.078,-35.156,-39.062,0.000,0
1644798599.683,-52.246,-620.605,-31.738,-46.387,0.000,0
1644798599.687,-36.621,-173.340,-28.809,-40.527,0.000,0
1644798599.692,-41.016,215.820,-33.203,-22.949,0.000,0
1644798599.696,-46.387,-53.711,-37.598,-13.184,0.000,0
1644798599.700,-51.270,-768.555,-41.016,-28.320,0.000,0
1644798599.704,-65.430,-884.277,-36.133,-40.527,0.000,0
1644798599.708,-49.316,-210.449,-26.367,-51.758,0.000,0
1644798599.712,-35.645,400.391,-28.320,-35.645,0.000,0
1644798599.716,-53.711,82.520,-33.203,-22.461,0.000,0
1644798599.721,-67.871,-882.812,-38.574,-27.344,0.000,0
1644798599.714,-71.289,-793.945,-43.457,-40.527,0.000,0
1644798599.718,-59.570,29.297,-39.551,-58.105,0.000,0
1644798599.722,-43.457,-62.500,-35.645,-40.527,0.000,0
1644798599.726,-46.875,-299.805,-38.086,-25.879,0.000,0
1644798599.731,-63.477,-347.168,-41.992,-41.992,0.000,0
1644798599.735,-67.383,-666.016,-38.086,-54.199,0.000,0
1644798599.739,-49.316,-837.891,-36.133,-43.457,0.000,0
1644798599.743,-34.668,-610.352,-31.738,-16.602,0.000,0
1644798599.747,-49.316,128.418,-29.785,-22.949,0.000,0
1644798599.751,-66.895,-114.258,-35.645,-31.250,0.000,0
1644798599.755,-70.801,-601.074,-35.156,-43.457,0.000,0
1644798599.759,-55.664,-265.137,-25.391,-51.270,0.000,0
1644798599.753,-39.551,223.145,-23.926,-35.645,0.000,0
1644798599.757,-35.645,148.926,-30.273,-15.625,0.000,0
1644798599.762,-47.852,-326.660,-29.785,-18.555,0.000,0
1644798599.766,-59.082,-534.180,-29.785,-30.273,0.000,0
1644798599.770,-45.898,-246.582,-27.832,-31.250,0.000,0
1644798599.774,-30.762,-24.414,-24.902,-23.926,0.000,0
1644798599.778,-23.438,-518.066,-28.809,-12.207,0.000,1
1644798599.782,-41.504,-838.867,-32.715,-15.625,0.000,0
1644798599.786,-62.012,-635.742,-30.273,-32.715,0.000,0
1644798599.790,-51.270,-458.496,-31.738,-40.039,0.000,0
1644798599.794,-47.363,-48.828,-36.621,-45.410,0.000,0
1644798599.798,-58.105,325.195,-37.598,-43.457,0.000,0
1644798599.794,-68.848,140.625,-41.016,-39.062,0.000,0
1644798599.798,-68.359,-515.625,-43.945,-53.223,0.000,0
1644798599.802,-48.340,-576.172,-39.062,-62.500,0.000,0
1644798599.806,-39.062,155.273,-36.133,-55.664,0.000,0
1644798599.810,-43.945,331.055,-37.598,-38.574,0.000,0
1644798599.814,-61.035,-345.215,-42.480,-26.855,0.000,0
1644798599.818,-78.125,-902.344,-43.945,-34.180,0.000,0
1644798599.823,-66.895,-527.344,-35.156,-54.688,0.000,0
1644798599.827,-40.039,121.094,-28.809,-47.852,0.000,0
1644798599.831,-27.344,-236.328,-33.203,-25.879,0.000,0
1644798599.835,-47.363,-701.172,-42.480,-32.715,0.000,0
1644798599.839,-58.105,-486.328,-37.598,-34.180,0.000,0
1644798599.835,-48.340,-459.473,-34.668,-44.922,0.000,0
1644798599.839,-44.434,-233.887,-39.551,-51.270,0.000,0
1644798599.843,-38.574,118.164,-42.969,-41.992,0.000,0
1644798599.847,-53.223,146.973,-43.945,-48.340,0.000,0
1644798599.851,-78.125,-346.191,-48.340,-43.945,0.000,0
1644798599.855,-76.660,-833.984,-48.340,-50.293,0.000,0
1644798599.859,-55.176,-551.758,-47.363,-67.871,0.000,0
1644798599.863,-46.875,-53.711,-48.340,-52.246,0.000,0
1644798599.867,-54.199,-85.449,-47.852,-48.828,0.000,0
1644798599.871,-67.383,-781.738,-53.711,-56.152,0.000,0
1644798599.875,-70.801,-735.840,-42.969,-64.453,0.000,0
1644798599.879,-49.316,-29.297,-29.785,-59.570,0.000,0
1644798599.876,-40.039,83.984,-34.668,-39.551,0.000,0
1644798599.880,-54.199,-242.676,-39.062,-38.086,0.000,0
1644798599.884,-60.547,-468.262,-34.180,-46.875,0.000,0
1644798599.888,-49.316,-500.000,-36.133,-57.617,0.000,0
1644798599.892,-50.293,-411.621,-41.992,-51.758,0.000,0
1644798599.896,-47.852,-333.008,-43.457,-28.320,0.000,0
1644798599.900,-33.691,-149.414,-41.992,-33.691,0.000,0
1644798599.904,-43.457,-162.598,-38.086,-43.457,0.000,0
1644798599.908,-53.223,-790.527,-38.574,-43.945,0.000,0
1644798599.912,-46.387,-760.742,-37.598,-52.246,0.000,0
1644798599.916,-39.551,80.078,-32.715,-41.992,0.000,0
1644798599.920,-40.527,249.023,-36.133,-29.785,0.000,0
1644798599.918,-42.969,-438.965,-42.480,-45.898,0.000,0
1644798599.922,-50.293,-781.250,-41.504,-66.895,0.000,0
1644798599.926,-51.270,-248.047,-39.062,-64.453,0.000,0
1644798599.930,-29.785,79.102,-41.016,-39.551,0.000,0
1644798599.934,-28.320,-107.422,-41.016,-26.367,0.000,0
1644798599.938,-40.527,-405.762,-43.457,-35.645,0.000,0
1644798599.942,-57.617,-717.285,-43.945,-49.316,0.000,0
1644798599.946,-53.711,-721.191,-35.645,-58.105,0.000,0
1644798599.950,-31.738,-710.938,-31.250,-38.086,0.000,0
1644798599.954,-34.180,-263.184,-31.738,-24.414,0.000,0
1644798599.958,-43.945,171.387,-34.668,-33.691,0.000,0
1644798599.962,-53.711,-512.695,-40.039,-35.645,0.000,0
1644798599.959,-40.527,-683.105,-34.668,-41.504,0.000,0
1644798599.963,-21.973,70.801,-30.762,-43.945,0.000,0
1644798599.967,-30.762,335.938,-28.320,-29.297,0.000,0
1644798599.971,-35.645,-55.176,-26.367,-20.996,0.000,0
1644798599.975,-47.363,-552.734,-31.250,-33.203,0.000,0
1644798599.979,-51.270,-644.531,-30.762,-52.246,0.000,0
1644798599.983,-33.203,-352.051,-35.156,-46.387,0.000,0
1644798599.987,-23.926,-315.918,-36.621,-29.785,0.000,0
1644798599.991,-44.434,-294.434,-35.645,-24.414,0.000,0
1644798599.995,-67.871,-249.512,-39.551,-28.809,0.000,0
1644798599.999,-57.617,-368.164,-39.062,-30.273,0.000,0
1644798600.003,-37.598,-489.746,-31.738,-20.996,0.000,0
1644798600.001,-37.598,-223.145,-29.297,-21.484,0.000,0
1644798600.005,-51.270,233.398,-34.668,-39.551,0.000,0
1644798600.009,-52.246,-270.508,-35.156,-31.250,0.000,0
1644798600.013,-42.969,-839.844,-34.668,-37.598,0.000,0
1644798600.017,-24.414,-438.965,-31.738,-46.875,0.000,0
1644798600.021,-15.625,-5.859,-28.809,-27.832,0.000,0
1644798600.025,-34.180,-214.844,-33.691,-28.320,0.000,0
1644798600.029,-51.758,-802.734,-34.668,-24.902,0.000,0
1644798600.033,-60.059,-796.387,-28.320,-31.738,0.000,0
1644798600.037,-46.875,-58.105,-24.414,-47.363,0.000,0
1644798600.041,-31.250,-1.953,-26.855,-37.109,0.000,0
1644798600.045,-32.227,-303.711,-26.367,-13.184,0.000,0
1644798600.043,-53.711,-240.723,-32.227,-25.879,0.000,0
1644798600.047,-64.941,-332.520,-33.203,-53.711,0.000,0
1644798600.051,-44.922,-471.680,-29.297,-48.340,0.000,0
1644798600.055,-27.344,-170.898,-32.227,-37.109,0.000,0
1644798600.059,-31.250,258.789,-34.668,-27.344,0.000,0
1644798600.063,-48.828,-234.863,-33.203,-26.367,0.000,0
1644798600.067,-55.664,-918.457,-31.738,-26.855,0.000,0
1644798600.071,-35.645,-769.043,-29.297,-21.973,0.000,0
1644798600.075,-26.367,14.160,-23.438,-19.531,0.000,0
1644798600.079,-36.621,255.859,-23.926,-18.555,0.000,0
1644798600.083,-45.410,-221.191,-29.297,-26.855,0.000,0
1644798600.087,-49.805,-542.480,-32.715,-32.227,0.000,0
1644798600.085,-41.992,-223.633,-30.762,-25.391,0.000,0
1644798600.089,-40.039,16.602,-27.832,-22.949,0.000,0
1644798600.093,-38.086,-38.086,-32.715,-36.621,0.000,0
1644798600.097,-41.504,-61.523,-34.668,-42.969,0.000,0
1644798600.101,-57.129,-345.215,-30.762,-26.855,0.000,0
1644798600.105,-46.875,-629.883,-32.227,-32.715,0.000,0
1644798600.109,-27.344,-437.012,-29.785,-28.320,0.000,0
1644798600.113,-31.250,-94.238,-30.273,-16.113,0.000,0
1644798600.117,-52.246,-4.883,-33.691,-17.578,0.000,0
1644798600.121,-69.824,-501.465,-38.574,-16.113,0.000,0
1644798600.125,-54.688,-997.070,-33.691,-17.578,0.000,0
1644798600.129,-27.832,-314.453,-20.996,-9.766,0.000,0
1644798600.128,-19.043,210.938,-26.367,-10.742,0.000,0
1644798600.132,-27.344,-383.301,-30.273,-18.066,0.000,0
1644798600.136,-44.922,-833.984,-29.785,-32.227,0.000,0
1644798600.140,-46.387,-531.250,-32.227,-48.828,0.000,0
1644798600.144,-37.598,-122.559,-31.250,-47.852,0.000,0
1644798600.148,-33.203,-410.645,-32.227,-33.691,0.000,0
1644798600.152,-38.086,-931.152,-31.738,-22.461,0.000,0
1644798600.156,-59.082,-669.922,-31.250,-33.203,0.000,0
1644798600.160,-50.781,-406.738,-29.785,-40.527,0.000,0
1644798600.164,-22.949,-509.766,-28.809,-37.109,0.000,0
1644798600.168,-22.949,-113.281,-28.320,-20.020,0.000,0
1644798600.172,-30.762,339.844,-31.250,-15.137,0.000,0
1644798600.172,-53.223,-166.504,-34.668,-28.809,0.000,0
1644798600.176,-60.059,-640.625,-30.762,-38.574,0.000,0
1644798600.180,-36.621,-269.043,-28.320,-40.039,0.000,0
1644798600.184,-27.344,304.688,-33.691,-32.227,0.000,0
1644798600.188,-32.227,241.699,-32.715,-34.180,0.000,0
1644798600.192,-41.992,-523.926,-31.738,-30.762,0.000,0
1644798600.196,-54.199,-873.047,-38.574,-28.809,0.000,0
1644798600.200,-42.969,-520.508,-40.039,-38.574,0.000,0
1644798600.204,-23.926,-169.922,-37.598,-33.691,0.000,0
1644798600.208,-31.738,-632.812,-36.133,-26.855,0.000,0
1644798600.212,-58.594,-867.188,-35.645,-31.738,0.000,0
1644798600.216,-66.406,-426.270,-36.621,-41.992,0.000,0
1644798600.216,-49.316,-524.902,-37.109,-55.176,0.000,0
1644798600.220,-34.180,-400.879,-34.668,-50.293,0.000,0
1644798600.224,-41.016,214.844,-34.180,-41.016,0.000,0
1644798600.228,-55.176,96.191,-36.133,-41.992,0.000,0
1644798600.232,-51.758,-608.887,-37.109,-37.598,0.000,0
1644798600.236,-36.621,-812.988,-37.109,-25.879,0.000,0
1644798600.240,-26.367,-197.266,-31.738,-20.020,0.000,0
1644798600.244,-30.762,240.234,-28.809,-20.508,0.000,0
1644798600.248,-49.316,-396.484,-32.715,-13.672,0.000,0
1644798600.252,-62.012,-869.629,-36.621,-24.414,0.000,0
1644798600.256,-51.758,-505.371,-35.156,-48.340,0.000,0
1644798600.260,-26.855,-108.398,-30.762,-47.852,0.000,0
1644798600.260,-24.414,-417.480,-35.645,-17.578,0.000,0
1644798600.263,-51.758,-713.867,-35.645,-7.812,0.000,0
1644798600.267,-62.988,-432.129,-30.273,-31.250,0.000,0
1644798600.271,-54.688,-480.957,-26.855,-41.992,0.000,0
1644798600.275,-40.039,-202.637,-23.926,-35.645,0.000,0
1644798600.279,-31.250,19.531,-26.367,-45.410,0.000,0
1644798600.283,-41.504,-203.613,-29.297,-41.504,0.000,0
1644798600.287,-45.410,-727.539,-37.109,-33.203,0.000,0
1644798600.291,-41.504,-817.871,-36.621,-45.898,0.000,0
1644798600.295,-33.203,-122.070,-27.344,-40.039,0.000,0
1644798600.299,-28.809,428.223,-27.832,-27.832,0.000,0
1644798600.303,-37.109,-5.859,-33.691,-18.066,0.000,0
1644798600.303,-46.875,-669.922,-37.598,-23.926,0.000,0
1644798600.307,-49.805,-563.477,-37.109,-47.852,0.000,0
1644798600.310,-22.461,-206.055,-35.156,-43.945,0.000,0
1644798600.314,-9.766,-239.258,-31.250,-16.113,0.000,0
1644798600.318,-31.250,-549.805,-29.297,-13.672,0.000,0
1644798600.322,-52.246,-687.012,-35.645,-24.902,0.000,0
1644798600.326,-53.711,-781.250,-42.480,-42.969,0.000,0
1644798600.330,-34.668,-756.836,-40.039,-50.781,0.000,0
1644798600.334,-15.625,-706.055,-39.062,-31.738,0.000,0
1644798600.338,-21.973,-41.504,-38.574,-27.344,0.000,0
1644798600.342,-44.434,-61.035,-39.551,-43.457,0.000,0
1644798600.346,-41.992,-823.242,-36.133,-46.387,0.000,0
1644798600.347,-35.156,-613.281,-34.668,-48.340,0.000,0
1644798600.350,-31.250,322.754,-34.668,-45.410,0.000,0
1644798600.354,-38.086,308.105,-33.203,-27.832,0.000,0
1644798600.358,-61.523,-293.945,-35.156,-23.926,0.000,0
1644798600.362,-62.500,-602.539,-36.621,-42.480,0.000,0
1644798600.366,-36.621,-425.781,-34.180,-60.059,0.000,0
1644798600.370,-20.020,-101.562,-34.668,-52.734,0.000,0
1644798600.374,-27.344,-502.930,-41.016,-33.203,0.000,0
1644798600.378,-52.246,-677.246,-39.062,-27.832,0.000,0
1644798600.382,-62.500,-349.121,-36.621,-42.480,0.000,0
1644798600.386,-48.828,-313.965,-34.668,-42.480,0.000,0
1644798600.390,-26.855,29.297,-28.809,-25.879,0.000,0
1644798600.390,-27.832,406.738,-30.762,-19.531,0.000,0
1644798600.394,-52.246,170.898,-37.109,-25.879,0.000,0
1644798600.398,-67.383,-547.852,-37.109,-36.133,0.000,0
1644798600.402,-56.152,-487.305,-30.762,-38.574,0.000,0
1644798600.405,-36.621,226.074,-29.785,-28.809,0.000,0
1644798600.409,-36.133,150.391,-32.715,-28.320,0.000,0
1644798600.413,-46.875,-296.387,-33.691,-31.738,0.000,0
1644798600.417,-50.293,-645.020,-30.762,-24.414,0.000,0
1644798600.421,-36.621,-545.410,-26.855,-26.855,0.000,0
1644798600.425,-21.484,182.617,-29.297,-32.715,0.000,0
1644798600.429,-34.668,-183.105,-35.645,-37.598,0.000,0
1644798600.433,-48.828,-782.715,-35.645,-23.926,0.000,0
1644798600.435,-64.941,-416.504,-32.227,-29.785,0.000,0
1644798600.439,-65.430,-381.348,-27.344,-42.969,0.000,0
1644798600.443,-37.109,-228.027,-27.344,-30.762,0.000,0
1644798600.447,-36.133,243.164,-33.691,-22.461,0.000,0
1644798600.451,-51.758,128.906,-33.691,-36.133,0.000,0
1644798600.455,-58.105,-655.762,-33.691,-47.363,0.000,0
1644798600.459,-46.875,-1000.000,-33.691,-38.574,0.000,0
1644798600.463,-24.414,-642.578,-33.691,-28.320,0.000,0
1644798600.467,-21.484,171.875,-25.391,-19.531,0.000,0
1644798600.471,-38.574,51.758,-23.926,-18.555,0.000,0
1644798600.474,-57.617,-695.312,-34.668,-22.461,0.000,0
1644798600.478,-64.453,-680.664,-38.574,-42.969,0.000,0
1644798600.479,-52.734,-36.621,-35.645,-49.805,0.000,0
1644798600.483,-43.457,137.695,-35.156,-34.668,0.000,0
1644798600.487,-44.922,36.621,-37.109,-33.691,0.000,0
1644798600.491,-60.547,-166.016,-41.016,-30.273,0.000,0
1644798600.495,-65.918,-314.453,-45.410,-42.480,0.000,0
1644798600.499,-42.969,-555.176,-46.875,-44.922,0.000,0
1644798600.503,-32.227,-475.098,-40.039,-30.762,0.000,0
1644798600.507,-45.898,170.410,-37.598,-27.832,0.000,0
1644798600.511,-63.477,-65.918,-44.922,-26.367,0.000,0
1644798600.515,-71.289,-737.305,-47.363,-41.504,0.000,0
1644798600.518,-60.547,-546.875,-37.598,-49.805,0.000,0
1644798600.522,-45.410,263.672,-30.273,-30.273,0.000,0
1644798600.525,-42.969,184.570,-34.180,-17.090,0.000,0
1644798600.529,-56.152,-653.809,-39.062,-29.785,0.000,0
1644798600.532,-61.035,-971.191,-41.016,-39.062,0.000,0
1644798600.536,-50.293,-363.281,-39.551,-46.387,0.000,0
1644798600.540,-42.480,152.344,-31.738,-33.203,0.000,0
1644798600.544,-37.109,-446.289,-26.855,-8.789,0.000,0
1644798600.548,-57.617,-956.055,-30.762,-10.254,0.000,0
1644798600.552,-78.613,-779.785,-33.691,-34.668,0.000,0
1644798600.556,-49.805,-502.441,-32.227,-49.805,0.000,0
1644798600.560,-38.574,-726.562,-35.645,-21.973,0.000,0
1644798600.564,-53.223,-460.449,-35.156,-17.090,0.000,0
1644798600.568,-58.105,112.305,-36.621,-37.598,0.000,0
1644798600.569,-63.477,-567.871,-41.016,-35.156,0.000,0
1644798600.573,-56.641,-746.582,-39.551,-35.645,0.000,0
1644798600.576,-41.992,90.332,-37.598,-39.551,0.000,0
1644798600.580,-42.969,433.105,-37.109,-34.180,0.000,0
1644798600.584,-54.688,-83.008,-40.527,-28.320,0.000,0
1644798600.588,-64.941,-765.137,-40.527,-25.391,0.000,0
1644798600.592,-60.059,-761.719,-37.598,-34.180,0.000,0
1644798600.596,-44.922,-120.605,-38.574,-38.086,0.000,0
1644798600.600,-50.781,-163.574,-36.133,-20.020,0.000,0
1644798600.604,-78.125,-478.027,-39.062,-12.695,0.000,0
1644798600.608,-88.379,-363.770,-40.039,-34.668,0.000,0
1644798600.612,-70.312,-369.141,-33.691,-38.574,0.000,0
1644798600.613,-40.527,-433.594,-32.715,-28.320,0.000,0
1644798600.617,-41.016,-156.738,-35.156,-32.227,0.000,0
1644798600.620,-63.477,148.926,-34.180,-30.762,0.000,0
1644798600.624,-80.566,-290.527,-35.645,-26.367,0.000,0
1644798600.628,-69.824,-818.359,-37.598,-28.809,0.000,0
1644798600.632,-43.945,-620.117,-31.738,-29.297,0.000,0
1644798600.636,-33.203,-82.031,-33.691,-31.738,0.000,0
1644798600.640,-43.457,-201.172,-38.574,-29.785,0.000,0
1644798600.644,-61.523,-794.434,-35.645,-10.742,0.000,0
1644798600.648,-71.777,-723.633,-31.250,-27.832,0.000,0
1644798600.652,-54.199,23.926,-25.391,-39.062,0.000,0
1644798600.656,-44.434,183.594,-27.344,-13.672,0.000,0
1644798600.657,-53.223,0.488,-30.273,-18.555,0.000,0
1644798600.661,-60.547,-132.812,-32.715,-33.203,0.000,0
1644798600.665,-66.895,-359.375,-38.086,-48.828,0.000,2
1644798600.669,-56.641,-315.918,-37.109,-47.852,0.000,0
1644798600.673,-45.410,-5.371,-36.621,-26.855,0.000,0
1644798600.677,-47.852,7.812,-33.691,-15.625,0.000,0
1644798600.681,-66.895,-466.309,-31.738,-19.531,0.000,0
1644798600.685,-68.359,-943.359,-36.621,-36.621,0.000,0
1644798600.689,-53.223,-719.727,-36.621,-42.480,0.000,0
1644798600.693,-38.574,167.480,-29.785,-34.668,0.000,0
1644798600.696,-36.621,305.176,-27.832,-16.602,0.000,0
1644798600.700,-51.758,-333.008,-31.250,-12.695,0.000,0
1644798600.702,-60.547,-607.910,-33.691,-33.691,0.000,0
1644798600.705,-44.922,-168.945,-31.738,-36.621,0.000,0
1644798600.709,-23.926,163.574,-32.227,-26.367,0.000,0
1644798600.713,-40.527,63.965,-37.109,-28.320,0.000,0
1644798600.717,-58.594,-124.512,-38.086,-30.762,0.000,0
1644798600.721,-49.805,-583.008,-31.738,-27.344,0.000,0
1644798600.725,-41.504,-718.750,-31.250,-39.551,0.000,0
1644798600.729,-36.621,-444.336,-33.691,-28.809,0.000,0
1644798600.733,-33.203,-66.895,-31.738,-18.555,0.000,0
1644798600.737,-47.852,99.609,-32.715,-24.414,0.000,0
1644798600.741,-56.152,-458.984,-38.574,-29.297,0.000,0
1644798600.744,-36.133,-921.387,-39.062,-31.250,0.000,0
1644798600.746,-25.879,-228.027,-33.691,-29.297,0.000,0
1644798600.750,-37.109,342.773,-24.902,-31.250,0.000,0
1644798600.754,-49.805,-325.195,-33.691,-29.297,0.000,0
1644798600.758,-62.500,-916.504,-43.945,-34.180,0.000,0
1644798600.762,-61.035,-498.047,-34.180,-46.875,0.000,0
1644798600.766,-39.551,-95.215,-29.785,-41.992,0.000,0
1644798600.770,-36.621,-417.969,-41.016,-29.785,0.000,0
1644798600.774,-46.387,-837.402,-49.805,-22.949,0.000,0
1644798600.777,-62.500,-537.598,-50.781,-47.852,0.000,0
1644798600.781,-56.641,-360.352,-44.434,-49.316,0.000,0
1644798600.785,-28.320,-164.551,-38.086,-36.621,0.000,0
1644798600.789,-28.320,152.344,-35.645,-40.039,0.000,0
1644798600.790,-47.852,245.605,-31.250,-37.109,0.000,0
1644798600.794,-70.801,-215.332,-41.504,-38.574,0.000,0
1644798600.798,-75.195,-598.145,-41.016,-38.086,0.000,0
1644798600.802,-55.664,-142.578,-32.715,-49.805,0.000,0
1644798600.806,-40.527,275.391,-33.691,-45.898,0.000,0
1644798600.810,-40.527,-50.293,-37.109,-34.668,0.000,0
1644798600.814,-48.340,-761.719,-41.016,-35.645,0.000,0
1644798600.818,-58.594,-1000.000,-35.645,-43.457,0.000,0
1644798600.822,-37.598,-429.688,-31.250,-42.480,0.000,0
1644798600.825,-12.207,-11.230,-35.156,-31.738,0.000,0
1644798600.829,-19.043,-435.059,-33.203,-10.742,0.000,0
1644798600.833,-54.688,-483.398,-32.715,-11.230,0.000,0
1644798600.834,-64.941,-282.715,-38.574,-41.504,0.000,0
1644798600.838,-35.156,-417.969,-34.180,-44.434,0.000,0
1644798600.842,-32.227,-475.098,-31.250,-28.809,0.000,0
1644798600.846,-49.316,108.887,-27.832,-27.344,0.000,0
1644798600.850,-52.734,-2.930,-26.855,-27.344,0.000,0
1644798600.854,-54.688,-814.453,-37.109,-24.902,0.000,0
1644798600.858,-43.457,-671.875,-35.645,-29.785,0.000,0
1644798600.862,-35.645,145.020,-25.879,-31.738,0.000,0
1644798600.866,-31.250,149.902,-29.785,-29.785,0.000,0
1644798600.870,-43.945,-497.559,-39.062,-7.324,0.000,0
1644798600.873,-73.730,-770.996,-37.598,-15.137,0.000,0
1644798600.877,-59.570,-259.277,-36.133,-43.945,0.000,0
1644798600.879,-24.902,116.699,-35.645,-32.715,0.000,0
1644798600.883,-35.156,41.992,-35.645,-29.297,0.000,0
1644798600.887,-52.734,-120.605,-38.574,-32.227,0.000,0
1644798600.891,-51.270,-334.961,-37.598,-26.367,0.000,0
1644798600.895,-42.969,-376.953,-38.086,-25.879,0.000,0
1644798600.899,-36.133,-339.844,-39.551,-25.879,0.000,0
1644798600.903,-30.762,-196.777,-40.039,-28.320,0.000,0
1644798600.907,-35.156,-247.070,-39.551,-34.668,0.000,0
1644798600.910,-54.199,-717.773,-34.180,-28.320,0.000,0
1644798600.914,-53.711,-781.250,-36.133,-31.738,0.000,0
1644798600.918,-41.992,-113.770,-39.062,-40.039,0.000,0
1644798600.922,-24.414,140.137,-36.133,-19.043,0.000,0
1644798600.924,-30.273,-376.465,-33.691,-7.812,0.000,0
1644798600.928,-67.383,-850.098,-35.645,-28.320,0.000,0
1644798600.932,-69.336,-501.953,-38.574,-50.293,0.000,0
1644798600.936,-41.016,138.184,-36.133,-50.781,0.000,0
1644798600.940,-26.367,-66.406,-33.691,-27.832,0.000,0
1644798600.944,-41.504,-678.711,-31.250,-20.996,0.000,0
1644798600.947,-68.848,-671.875,-30.762,-32.715,0.000,0
1644798600.951,-71.289,-323.730,-37.598,-38.086,0.000,0
1644798600.955,-36.133,-493.652,-36.133,-27.832,0.000,0
1644798600.959,-33.691,-671.875,-30.762,-25.879,0.000,0
1644798600.963,-65.918,76.660,-31.250,-37.598,0.000,0
1644798600.967,-79.102,-142.578,-37.598,-53.223,0.000,0
1644798600.970,-80.078,-605.469,-37.598,-55.176,0.000,0
1644798600.973,-60.547,-208.496,-29.785,-44.434,0.000,0
1644798600.977,-36.133,115.723,-27.832,-37.598,0.000,0
1644798600.981,-48.828,58.594,-29.785,-30.273,0.000,0
1644798600.985,-70.801,-368.164,-33.203,-28.809,0.000,0
1644798600.989,-78.125,-750.488,-34.180,-36.133,0.000,0
1644798600.993,-62.988,-545.410,-28.809,-48.340,0.000,0
1644798600.997,-49.805,-170.898,-26.367,-40.527,0.000,0
1644798601.001,-56.152,-572.266,-32.715,-26.367,0.000,0
1644798601.005,-73.242,-724.609,-33.203,-47.852,0.000,0
1644798601.008,-90.332,-392.090,-29.785,-67.871,0.000,0
1644798601.012,-66.895,-388.184,-26.367,-49.805,0.000,0
1644798601.014,-36.621,-85.449,-21.484,-33.691,0.000,0
1644798601.018,-37.109,305.176,-24.414,-31.738,0.000,0
1644798601.022,-42.480,41.992,-31.250,-20.996,0.000,0
1644798601.026,-33.203,-582.031,-31.738,-8.301,0.000,0
1644798601.030,-29.785,-508.301,-27.344,-25.391,0.000,0
1644798601.034,-47.363,-51.270,-29.785,-45.898,0.000,0
1644798601.038,-59.570,-55.664,-34.668,-47.363,0.000,0
1644798601.042,-61.035,-571.777,-39.062,-44.922,0.000,0
1644798601.045,-72.754,-925.293,-42.480,-47.852,0.000,0
1644798601.049,-85.938,-428.223,-37.109,-67.383,0.000,0
1644798601.053,-67.871,238.281,-34.180,-60.059,0.000,0
1644798601.057,-55.176,-227.051,-38.574,-29.297,0.000,0
1644798601.059,-61.523,-732.422,-41.504,-22.949,0.000,0
1644798601.063,-74.219,-403.809,-38.574,-49.805,0.000,0
1644798601.067,-63.965,-382.812,-36.621,-62.988,0.000,0
1644798601.071,-44.434,-127.930,-29.785,-44.922,0.000,0
1644798601.075,-45.898,245.117,-25.879,-31.738,0.000,0
1644798601.079,-55.664,-53.223,-31.738,-39.062,0.000,0
1644798601.082,-71.289,-679.199,-33.691,-44.922,0.000,0
1644798601.086,-62.012,-979.492,-34.180,-49.805,0.000,0
1644798601.090,-50.781,-633.789,-31.250,-57.617,0.000,0
1644798601.094,-60.059,155.762,-27.832,-52.246,0.000,0
1644798601.098,-57.129,38.086,-34.668,-45.410,0.000,0
1644798601.102,-67.871,-540.039,-41.016,-53.711,0.000,0
1644798601.104,-79.590,-420.898,-33.691,-70.312,0.000,0
1644798601.108,-68.359,56.641,-29.297,-66.406,0.000,0
1644798601.112,-53.711,126.953,-31.250,-46.875,0.000,0
1644798601.116,-46.387,-24.902,-28.320,-42.969,0.000,0
1644798601.120,-67.871,-273.926,-33.691,-51.758,0.000,0
1644798601.123,-71.777,-613.770,-40.039,-62.988,0.000,0
1644798601.127,-41.504,-771.484,-40.039,-46.387,0.000,0
1644798601.131,-39.062,-527.344,-40.039,-32.715,0.000,0
1644798601.135,-45.410,133.301,-36.133,-34.668,0.000,0
1644798601.139,-60.059,-158.691,-34.668,-32.715,0.000,0
1644798601.143,-84.473,-760.254,-31.738,-31.250,0.000,0
1644798601.147,-81.543,-593.262,-34.180,-26.855,0.000,0
1644798601.149,-55.664,106.445,-27.344,-23.926,0.000,0
1644798601.153,-59.082,295.898,-21.484,-29.785,0.000,0
1644798601.157,-78.613,-490.234,-31.738,-24.414,0.000,0
1644798601.160,-67.383,-818.359,-34.180,-53.223,0.000,0
1644798601.164,-58.594,-191.895,-33.203,-82.031,0.000,0
1644798601.168,-50.293,72.754,-36.133,-58.594,0.000,0
1644798601.172,-48.340,-569.824,-36.133,-34.668,0.000,0
1644798601.176,-65.430,-905.273,-35.645,-35.645,0.000,0
1644798601.180,-59.570,-529.297,-33.691,-44.922,0.000,0
1644798601.184,-27.344,-380.859,-33.203,-40.039,0.000,0
1644798601.188,-19.043,-52.246,-31.738,-21.973,0.000,0
1644798601.192,-16.113,267.578,-31.738,-16.602,0.000,0
1644798601.194,-40.527,71.777,-37.109,-36.621,0.000,0
1644798601.197,-65.430,-604.492,-38.574,-35.156,0.000,0
1644798601.201,-57.129,-772.949,-40.039,-43.945,0.000,0
1644798601.205,-58.594,5.859,-37.109,-54.688,0.000,0
1644798601.209,-57.129,374.512,-36.133,-36.621,0.000,0
1644798601.213,-62.500,-367.188,-45.898,-32.715,0.000,0
1644798601.217,-67.383,-996.582,-47.852,-41.504,0.000,0
1644798601.221,-62.988,-489.746,-39.062,-56.152,0.000,0
1644798601.225,-60.059,182.617,-41.016,-49.805,0.000,0
1644798601.228,-58.594,-209.473,-45.898,-8.301,0.000,0
1644798601.232,-63.965,-630.859,-41.016,7.324,0.000,0
1644798601.236,-76.660,-426.758,-40.039,-27.832,0.000,0
1644798601.239,-69.336,-432.129,-42.480,-52.734,0.000,0
1644798601.243,-49.805,-203.613,-42.969,-47.363,0.000,0
1644798601.247,-47.363,76.172,-45.410,-53.711,0.000,0
1644798601.251,-65.430,64.453,-48.828,-62.012,0.000,0
1644798601.254,-85.449,-477.051,-55.176,-56.641,0.000,0
1644798601.258,-80.078,-899.414,-53.711,-62.988,0.000,0
1644798601.262,-51.758,-594.727,-42.969,-61.523,0.000,0
1644798601.266,-36.133,-227.539,-38.574,-38.574,0.000,0
1644798601.270,-54.688,-389.648,-37.109,-36.133,0.000,0
1644798601.274,-70.312,-899.902,-39.551,-37.598,0.000,0
1644798601.278,-66.406,-778.320,-36.133,-48.828,0.000,0
1644798601.282,-48.340,-127.441,-29.785,-54.199,0.000,0
1644798601.284,-26.855,-27.832,-34.180,-31.738,0.000,0
1644798601.288,-39.062,-182.129,-40.039,-20.996,0.000,0
1644798601.292,-58.594,-338.379,-38.574,-31.738,0.000,0
1644798601.296,-53.223,-484.863,-38.086,-49.805,0.000,0
1644798601.300,-38.086,-380.371,-41.504,-44.434,0.000,0
1644798601.304,-29.785,-325.195,-43.945,-21.973,0.000,0
1644798601.308,-33.691,-229.492,-43.457,-15.137,0.000,0
1644798601.311,-52.734,-362.305,-42.480,-23.438,0.000,0
1644798601.315,-61.523,-889.648,-43.457,-23.926,0.000,0
1644798601.319,-40.039,-771.484,-41.016,-27.832,0.000,0
1644798601.323,-29.785,19.043,-30.762,-23.926,0.000,0
1644798601.327,-27.344,172.852,-27.344,-15.625,0.000,0
1644798601.330,-36.621,-447.754,-31.738,-18.555,0.000,0
1644798601.334,-54.688,-768.555,-33.203,-26.855,0.000,0
1644798601.337,-43.945,-291.016,-30.762,-43.457,0.000,0
1644798601.341,-25.879,56.152,-31.250,-35.156,0.000,0
1644798601.345,-41.992,-58.594,-32.715,-20.508,0.000,0
1644798601.349,-65.430,-513.184,-34.180,-9.766,0.000,0
1644798601.353,-67.871,-883.301,-39.551,-21.973,0.000,0
1644798601.357,-47.852,-710.449,-41.504,-36.621,0.000,0
1644798601.361,-26.855,-718.262,-33.203,-20.020,0.000,0
1644798601.365,-32.227,-295.898,-26.855,-22.949,0.000,0
1644798601.368,-43.945,-10.742,-29.785,-29.785,0.000,0
1644798601.372,-46.387,-728.516,-32.227,-18.066,0.000,0
1644798601.375,-45.410,-734.863,-34.668,-29.785,0.000,0
1644798601.379,-29.297,15.137,-36.133,-26.367,0.000,0
1644798601.383,-24.902,270.508,-34.180,-17.090,0.000,0
1644798601.387,-41.992,-218.262,-38.086,-17.090,0.000,0
1644798601.391,-48.340,-702.148,-41.504,-23.438,0.000,0
1644798601.394,-38.086,-646.484,-37.598,-32.715,0.000,0
1644798601.398,-19.043,-262.695,-25.879,-17.090,0.000,0
1644798601.402,-19.531,-400.391,-29.297,-7.324,0.000,0
1644798601.406,-35.645,-813.965,-39.062,-16.602,0.000,0
1644798601.410,-52.734,-557.617,-34.180,-30.762,0.000,0
1644798601.414,-49.316,-412.598,-33.203,-39.551,0.000,0
1644798601.418,-24.414,-253.906,-34.668,-40.039,0.000,0
1644798601.420,-27.832,85.449,-32.227,-32.715,0.000,0
1644798601.424,-45.410,193.359,-35.645,-28.809,0.000,0
1644798601.428,-40.527,-401.855,-39.062,-24.414,0.000,0
1644798601.432,-45.898,-720.215,-36.133,-20.508,0.000,0
1644798601.436,-41.504,-197.754,-28.809,-23.926,0.000,0
1644798601.440,-25.391,39.551,-23.438,-25.391,0.000,0
1644798601.444,-36.621,-271.484,-31.250,-22.949,0.000,0
1644798601.447,-49.316,-834.473,-40.527,-16.602,0.000,0
1644798601.451,-57.617,-735.352,-39.551,-35.156,0.000,0
1644798601.455,-46.875,-29.297,-39.062,-48.828,0.000,0
1644798601.459,-27.832,97.656,-35.645,-29.297,0.000,0
1644798601.463,-33.203,-103.027,-28.809,-16.113,0.000,0
1644798601.466,-47.852,-215.820,-31.250,-16.602,0.000,0
1644798601.470,-37.109,-301.758,-34.180,-17.578,0.000,0
1644798601.473,-28.809,-300.781,-29.297,-9.277,0.000,0
1644798601.477,-29.785,-46.387,-25.391,-10.742,0.000,0
1644798601.481,-30.273,181.641,-21.484,-20.508,0.000,0
1644798601.485,-56.641,-334.473,-27.344,-30.762,0.000,0
1644798601.489,-57.129,-935.059,-41.504,-32.227,0.000,0
1644798601.493,-43.945,-744.629,-41.504,-35.156,0.000,0
1644798601.497,-40.527,101.074,-35.645,-34.668,0.000,0
1644798601.501,-37.109,285.156,-36.133,-26.855,0.000,0
1644798601.504,-54.199,-236.816,-36.621,-30.273,0.000,0
1644798601.508,-65.430,-493.164,-35.645,-42.480,0.000,0
1644798601.511,-54.688,-164.062,-33.203,-45.410,0.000,0
1644798601.515,-46.387,186.035,-32.227,-26.855,0.000,0
1644798601.519,-46.875,67.383,-32.227,-13.184,0.000,0
1644798601.523,-52.734,-123.047,-31.738,-27.832,0.000,0
1644798601.526,-66.895,-333.496,-34.668,-44.434,0.000,0
1644798601.530,-61.035,-492.676,-30.273,-36.133,0.000,0
1644798601.534,-36.133,-708.496,-24.414,-13.184,0.000,0
1644798601.538,-36.621,-549.316,-27.344,-8.301,0.000,0
1644798601.542,-62.012,-275.391,-32.715,-23.438,0.000,0
1644798601.546,-77.637,-684.570,-33.203,-27.344,0.000,0
1644798601.550,-64.941,-559.082,-25.391,-28.809,0.000,0
1644798601.553,-34.668,152.832,-23.438,-23.438,0.000,1
1644798601.556,-37.109,412.109,-29.785,-19.043,0.000,0
1644798601.560,-73.242,-15.625,-35.645,-26.367,0.000,0
1644798601.564,-80.078,-520.996,-36.621,-37.109,0.000,0
1644798601.568,-69.824,-317.871,-28.320,-50.781,0.000,0
1644798601.572,-58.105,190.430,-22.949,-45.898,0.000,0
1644798601.575,-48.828,-119.141,-28.809,-34.180,0.000,0
1644798601.579,-57.129,-497.070,-35.156,-26.367,0.000,0
1644798601.583,-80.078,-294.434,-41.016,-35.156,0.000,0
1644798601.587,-83.496,-192.871,-41.504,-67.871,0.000,0
1644798601.591,-66.406,-316.406,-39.551,-65.430,0.000,0
1644798601.595,-59.082,-128.906,-36.133,-36.621,0.000,0
1644798601.599,-67.383,118.652,-41.016,-30.273,0.000,0
1644798601.602,-76.660,-470.703,-42.969,-42.969,0.000,0
1644798601.606,-78.613,-649.902,-34.180,-53.711,0.000,0
1644798601.610,-63.965,-89.355,-32.227,-51.758,0.000,0
1644798601.614,-51.270,362.305,-32.227,-45.410,0.000,0
1644798601.617,-60.547,244.141,-36.133,-43.457,0.000,0
1644798601.621,-78.613,-492.676,-38.574,-42.480,0.000,0
1644798601.625,-85.449,-830.566,-32.227,-50.781,0.000,0
1644798601.629,-69.824,-284.668,-24.902,-50.293,0.000,0
1644798601.633,-73.730,70.312,-26.367,-39.062,0.000,0
1644798601.637,-77.637,-292.480,-34.180,-42.969,0.000,0
1644798601.641,-82.520,-389.160,-35.156,-45.898,0.000,0
1644798601.644,-90.332,-286.133,-34.180,-58.594,0.000,0
1644798601.648,-77.148,-241.699,-32.227,-55.176,0.000,0
1644798601.652,-67.871,50.781,-27.344,-40.527,0.000,0
1644798601.655,-76.660,146.484,-28.320,-52.246,0.000,0
1644798601.659,-90.332,-204.102,-32.227,-51.758,0.000,0
1644798601.663,-97.168,-556.152,-33.203,-53.223,0.000,0
1644798601.667,-87.402,-541.504,-29.297,-56.641,0.000,0
1644798601.671,-61.523,-78.125,-25.391,-50.293,0.000,0
1644798601.675,-62.500,292.969,-29.785,-51.758,0.000,0
1644798601.679,-72.266,-334.961,-35.645,-45.898,0.000,0
1644798601.682,-82.031,-928.711,-36.133,-48.828,0.000,0
1644798601.686,-73.242,-206.055,-28.809,-59.570,0.000,0
1644798601.690,-55.176,287.109,-25.879,-53.223,0.000,0
1644798601.693,-56.641,147.461,-28.320,-47.852,0.000,0
1644798601.697,-70.801,-37.598,-31.738,-37.598,0.000,0
1644798601.701,-82.031,-243.164,-34.180,-36.133,0.000,0
1644798601.705,-59.570,-252.441,-29.297,-54.688,0.000,0
1644798601.709,-35.645,-41.504,-26.855,-54.688,0.000,0
1644798601.713,-48.828,24.414,-31.738,-35.645,0.000,0
1644798601.717,-66.406,-245.605,-34.180,-32.715,0.000,0
1644798601.720,-79.590,-721.680,-37.109,-51.270,0.000,0
1644798601.724,-71.289,-909.668,-33.691,-47.852,0.000,0
1644798601.728,-49.316,-268.066,-34.180,-45.898,0.000,0
1644798601.732,-51.758,355.469,-31.738,-34.668,0.000,0
1644798601.736,-67.383,48.340,-33.203,-20.020,0.000,0
1644798601.739,-69.824,-607.910,-36.621,-45.410,0.000,0
1644798601.743,-58.105,-459.961,-31.738,-68.359,0.000,0
1644798601.747,-45.410,125.977,-28.320,-60.547,0.000,0
1644798601.751,-44.922,138.672,-28.320,-39.062,0.000,0
1644798601.755,-53.711,-10.254,-30.273,-29.297,0.000,0
1644798601.758,-62.500,-438.477,-31.738,-31.738,0.000,0
1644798601.762,-60.547,-712.891,-31.738,-45.898,0.000,0
1644798601.766,-41.992,-661.621,-28.320,-37.598,0.000,0
1644798601.770,-25.391,-722.656,-28.809,-24.902,0.000,0
1644798601.774,-31.738,-159.180,-29.297,-30.762,0.000,0
1644798601.778,-49.805,-205.078,-31.250,-27.832,0.000,0
1644798601.782,-60.547,-595.703,-36.133,-41.016,0.000,0
1644798601.785,-42.480,-215.820,-35.156,-38.574,0.000,0
1644798601.789,-31.738,271.973,-34.180,-32.227,0.000,0
1644798601.793,-42.480,179.199,-36.133,-23.926,0.000,0
1644798601.796,-65.430,-390.137,-38.574,-20.508,0.000,0
1644798601.800,-64.453,-541.992,-39.551,-37.598,0.000,0
1644798601.804,-37.109,-341.309,-41.504,-52.246,0.000,0
1644798601.808,-32.715,-188.965,-38.574,-53.711,0.000,0
1644798601.812,-39.551,-522.461,-38.574,-42.480,0.000,0
1644798601.816,-56.641,-643.555,-37.598,-34.180,0.000,0
1644798601.820,-58.105,-371.582,-36.621,-45.898,0.000,0
1644798601.823,-32.715,-279.785,-37.109,-39.062,0.000,0
1644798601.827,-20.020,-190.918,-37.109,-27.344,0.000,0
1644798601.831,-32.227,31.738,-35.645,-29.785,0.000,0
1644798601.835,-43.457,0.000,-38.574,-33.203,0.000,0
1644798601.839,-55.664,-588.379,-44.434,-43.945,0.000,0
1644798601.842,-51.758,-525.879,-41.016,-41.504,0.000,0
1644798601.846,-40.527,125.488,-36.133,-33.203,0.000,0
1644798601.850,-43.945,130.859,-40.039,-33.203,0.000,0
1644798601.854,-48.828,-559.082,-40.039,-20.020,0.000,0
1644798601.858,-66.406,-944.336,-35.156,-24.414,0.000,0
1644798601.862,-62.012,-377.441,-32.227,-41.992,0.000,0
1644798601.866,-32.227,187.012,-39.062,-37.109,0.000,0
1644798601.870,-29.785,166.504,-46.387,-36.133,0.000,0
1644798601.873,-53.711,-66.406,-43.945,-34.180,0.000,0
1644798601.877,-70.801,-278.809,-39.551,-45.410,0.000,0
1644798601.881,-59.570,-265.137,-37.598,-50.293,0.000,0
1644798601.885,-41.016,-167.480,-39.062,-37.109,0.000,0
1644798601.889,-33.203,-11.230,-41.992,-33.203,0.000,0
1644798601.892,-49.316,30.273,-50.293,-38.574,0.000,0
1644798601.896,-65.430,-600.098,-55.664,-31.738,0.000,0
1644798601.900,-49.805,-928.711,-45.898,-39.551,0.000,0
1644798601.904,-29.785,-437.012,-34.180,-40.039,0.000,0
1644798601.908,-27.832,201.172,-31.738,-19.531,0.000,0
1644798601.912,-52.734,45.410,-33.691,-9.766,0.000,0
1644798601.916,-61.035,-688.965,-35.156,-19.531,0.000,0
1644798601.920,-53.223,-552.734,-36.133,-33.203,0.000,0
1644798601.924,-44.922,142.578,-41.504,-38.574,0.000,0
1644798601.928,-28.809,104.492,-43.457,-29.785,0.000,0
1644798601.932,-35.645,-442.871,-40.527,-18.555,0.000,0
1644798601.936,-61.035,-392.578,-39.551,-25.391,0.000,0
1644798601.940,-57.129,-327.637,-39.062,-41.992,0.000,0
1644798601.943,-30.762,-370.117,-36.621,-47.363,0.000,0
1644798601.947,-26.367,-213.867,-38.574,-42.969,0.000,0
1644798601.951,-34.180,-150.391,-37.598,-32.227,0.000,0
1644798601.955,-46.387,-352.051,-31.738,-32.227,0.000,0
1644798601.959,-50.293,-791.992,-38.086,-48.828,0.000,0
1644798601.963,-37.598,-848.633,-39.062,-46.875,0.000,0
1644798601.967,-31.738,27.832,-30.762,-40.527,0.000,0
1644798601.970,-37.598,288.574,-37.598,-27.832,0.000,0
1644798601.974,-47.852,-351.074,-44.434,-20.996,0.000,0
1644798601.978,-55.664,-576.172,-39.062,-32.715,0.000,0
1644798601.982,-47.852,-62.500,-34.668,-39.551,0.000,0
1644798601.986,-32.227,294.434,-36.621,-34.668,0.000,0
1644798601.989,-30.273,-25.391,-33.691,-36.621,0.000,0
1644798601.993,-52.734,-548.828,-37.109,-38.086,0.000,0
1644798601.997,-71.777,-713.867,-41.016,-39.062,0.000,0
1644798602.001,-61.523,-448.242,-39.062,-36.621,0.000,0
1644798602.005,-47.852,-132.324,-39.551,-28.809,0.000,0
1644798602.009,-48.340,229.980,-35.645,-28.809,0.000,0
1644798602.013,-63.965,123.535,-37.109,-36.621,0.000,0
1644798602.016,-56.641,-600.586,-35.645,-41.016,0.000,0
1644798602.020,-31.738,-717.773,-29.297,-32.227,0.000,0
1644798602.024,-35.156,112.305,-31.250,-26.367,0.000,0
1644798602.028,-44.922,471.191,-33.203,-23.438,0.000,0
1644798602.032,-55.664,-175.293,-38.086,-19.531,0.000,0
1644798602.035,-63.477,-1000.000,-46.387,-19.531,0.000,0
1644798602.039,-50.781,-762.695,-43.945,-28.320,0.000,0
1644798602.043,-16.113,238.770,-33.203,-28.320,0.000,0
1644798602.047,-22.949,-71.777,-35.156,-29.297,0.000,0
1644798602.051,-50.293,-760.254,-43.945,-26.855,0.000,0
1644798602.055,-55.664,-447.754,-43.945,-35.645,0.000,0
1644798602.059,-40.527,-382.812,-33.203,-42.480,0.000,0
1644798602.062,-29.297,-187.500,-28.809,-35.645,0.000,0
1644798602.066,-22.949,240.234,-29.785,-24.902,0.000,0
1644798602.070,-41.016,258.301,-32.227,-33.691,0.000,0
1644798602.074,-64.941,-315.918,-32.227,-27.832,0.000,0
1644798602.077,-53.711,-593.262,-31.738,-26.855,0.000,0
1644798602.081,-32.227,-261.719,-32.715,-34.668,0.000,0
1644798602.085,-28.320,-92.285,-31.250,-19.531,0.000,0
1644798602.089,-41.992,-281.738,-34.668,-20.996,0.000,0
1644798602.093,-56.641,-837.891,-36.621,-14.648,0.000,0
1644798602.097,-58.105,-756.348,-36.621,-32.227,0.000,0
1644798602.101,-36.621,15.137,-33.691,-45.898,0.000,0
1644798602.105,-23.438,140.137,-29.785,-16.602,0.000,0
1644798602.108,-41.992,-139.160,-32.227,-16.602,0.000,0
1644798602.112,-63.477,-259.277,-30.762,-28.809,0.000,0
1644798602.116,-62.500,-494.629,-32.227,-31.250,0.000,0
1644798602.120,-47.363,-529.297,-39.062,-28.809,0.000,0
1644798602.123,-28.320,-97.656,-39.062,-18.066,0.000,0
1644798602.127,-31.738,28.320,-37.598,-19.531,0.000,0
1644798602.131,-57.129,-498.047,-39.551,-26.367,0.000,0
1644798602.135,-61.523,-968.262,-41.016,-35.645,0.000,0
1644798602.139,-44.434,-704.102,-41.504,-36.621,0.000,0
1644798602.143,-39.551,201.172,-34.668,-34.180,0.000,0
1644798602.147,-44.922,352.539,-35.645,-39.062,0.000,0
1644798602.150,-57.129,-274.414,-38.574,-34.668,0.000,0
1644798602.154,-66.895,-722.656,-39.551,-42.969,0.000,0
1644798602.158,-48.828,-290.527,-36.133,-58.105,0.000,0
1644798602.162,-37.109,216.309,-34.668,-45.898,0.000,0
1644798602.166,-61.523,79.102,-39.551,-29.297,0.000,0
1644798602.170,-68.359,-246.582,-39.062,-20.996,0.000,0
1644798602.174,-57.617,-675.781,-33.203,-25.879,0.000,0
1644798602.177,-54.199,-579.102,-33.691,-43.457,0.000,0
1644798602.181,-37.109,-638.672,-36.621,-27.344,0.000,0
1644798602.185,-27.832,-491.699,-32.227,-13.184,0.000,0
1644798602.189,-47.852,-75.195,-32.715,-25.391,0.000,0
1644798602.193,-53.223,-570.801,-32.227,-37.598,0.000,0
1644798602.197,-33.203,-561.035,-28.320,-37.598,0.000,0
1644798602.200,-23.438,155.273,-33.203,-34.180,0.000,0
1644798602.204,-26.367,379.395,-34.180,-32.227,0.000,0
1644798602.208,-36.621,-155.762,-35.156,-19.531,0.000,0
1644798602.212,-56.641,-699.219,-40.039,-33.203,0.000,0
1644798602.216,-52.734,-394.531,-31.738,-49.316,0.000,0
1644798602.219,-25.391,-104.492,-28.809,-38.574,0.000,0
1644798602.223,-31.738,-338.379,-31.250,-28.320,0.000,0
1644798602.227,-50.293,-418.457,-27.832,-29.297,0.000,0
1644798602.231,-48.340,-550.293,-36.133,-35.645,0.000,0
1644798602.235,-37.598,-593.750,-40.527,-39.551,0.000,0
1644798602.239,-30.762,-658.203,-38.574,-22.461,0.000,0
1644798602.243,-28.320,-571.777,-37.598,-15.137,0.000,0
1644798602.246,-43.945,33.691,-34.180,-13.672,0.000,0
1644798602.250,-63.965,-401.367,-39.062,-24.414,0.000,0
1644798602.254,-54.688,-717.773,-38.086,-45.898,0.000,0
1644798602.258,-41.016,-112.793,-31.250,-40.039,0.000,0
1644798602.261,-41.504,310.547,-34.180,-24.902,0.000,0
1644798602.265,-45.898,-58.105,-37.109,-20.996,0.000,0
1644798602.269,-56.152,-810.059,-42.480,-21.484,0.000,0
1644798602.273,-48.828,-922.852,-38.574,-35.645,0.000,0
1644798602.277,-37.109,-137.695,-33.691,-43.945,0.000,0
1644798602.281,-41.992,198.242,-32.715,-26.855,0.000,0
1644798602.285,-47.363,-69.824,-27.832,-27.344,0.000,0
1644798602.288,-49.805,-431.641,-31.738,-20.996,0.000,0
1644798602.292,-45.898,-622.070,-34.180,-25.391,0.000,0
1644798602.296,-43.457,-332.520,-29.297,-32.227,0.000,0
1644798602.299,-39.062,20.996,-30.273,-23.926,0.000,0
1644798602.303,-45.410,222.656,-35.645,-22.949,0.000,0
1644798602.307,-58.594,-164.551,-36.621,-26.855,0.000,0
1644798602.311,-56.152,-840.332,-35.645,-37.109,0.000,0
1644798602.315,-44.922,-718.750,-33.203,-26.855,0.000,0
1644798602.319,-40.039,124.023,-25.879,-25.391,0.000,0
1644798602.323,-40.039,307.617,-31.250,-34.668,0.000,0
1644798602.326,-54.199,-472.656,-37.598,-21.484,0.000,0
1644798602.330,-59.082,-860.840,-37.109,-27.344,0.000,0
1644798602.334,-46.875,-257.812,-37.109,-46.387,0.000,0
1644798602.338,-41.504,152.344,-35.156,-41.504,0.000,0
1644798602.342,-43.945,90.820,-37.598,-22.949,0.000,0
1644798602.346,-52.734,-270.508,-35.156,-10.254,0.000,0
1644798602.349,-61.523,-656.738,-28.320,-20.996,0.000,0
1644798602.353,-50.781,-437.012,-24.414,-34.180,0.000,0
1644798602.357,-32.715,-221.191,-22.461,-29.297,0.000,0
1644798602.361,-48.340,-286.133,-26.855,-27.832,0.000,0
1644798602.365,-64.453,-506.836,-29.785,-27.832,0.000,0
1644798602.369,-64.941,-875.000,-30.762,-26.855,0.000,0
1644798602.373,-49.805,-861.816,-32.227,-29.297,0.000,0
1644798602.377,-34.180,-148.438,-32.227,-30.762,0.000,0
1644798602.380,-30.762,368.164,-35.156,-24.902,0.000,0
1644798602.384,-46.875,-131.348,-39.551,-22.461,0.000,0
1644798602.388,-70.801,-677.734,-44.434,-33.203,0.000,0
1644798602.392,-64.941,-370.605,-37.109,-38.574,0.000,0
1644798602.396,-40.527,99.609,-27.832,-38.574,0.000,0
1644798602.400,-33.203,56.641,-37.109,-38.574,0.000,0
1644798602.403,-59.082,-384.766,-43.945,-41.016,0.000,0
1644798602.407,-77.148,-807.129,-38.574,-29.785,0.000,0
1644798602.411,-71.289,-776.367,-36.621,-32.227,0.000,0
1644798602.415,-42.480,-696.777,-35.156,-35.156,0.000,1
1644798602.419,-26.367,-587.402,-30.273,-27.344,0.000,0
1644798602.423,-43.457,-24.414,-30.273,-36.133,0.000,0
1644798602.427,-67.871,-307.617,-36.621,-38.574,0.000,0
1644798602.430,-64.941,-634.277,-31.250,-49.316,0.000,0
1644798602.434,-46.387,-171.875,-24.902,-48.340,0.000,0
1644798602.438,-49.805,302.246,-29.297,-25.391,0.000,0
1644798602.442,-53.711,122.559,-37.109,-18.066,0.000,0
1644798602.446,-61.523,-499.023,-43.945,-23.438,0.000,0
1644798602.450,-68.359,-804.688,-42.969,-31.250,0.000,0
1644798602.453,-48.340,-506.836,-33.691,-37.109,0.000,0
1644798602.457,-40.039,-141.602,-31.250,-34.180,0.000,0
1644798602.461,-35.645,-561.523,-32.715,-22.461,0.000,0
1644798602.465,-44.434,-919.922,-29.785,-21.973,0.000,0
1644798602.469,-62.500,-522.461,-25.391,-45.410,0.000,0
1644798602.473,-45.898,-283.203,-24.902,-44.434,0.000,0
1644798602.476,-31.738,-29.785,-28.320,-21.484,0.000,0
1644798602.480,-39.062,252.930,-31.738,-17.090,0.000,0
1644798602.484,-55.664,-42.480,-31.250,-28.809,0.000,0
1644798602.488,-55.664,-608.887,-31.738,-40.527,0.000,0
1644798602.492,-43.457,-465.332,-34.668,-27.344,0.000,0
1644798602.496,-33.203,-33.691,-32.227,-15.625,0.000,0
1644798602.500,-27.832,-124.023,-28.320,-14.648,0.000,0
1644798602.503,-51.270,-598.145,-33.691,-2.441,0.000,0
1644798602.507,-62.988,-966.309,-41.016,-19.531,0.000,0
1644798602.511,-41.504,-339.355,-42.480,-61.523,0.000,0
1644798602.515,-32.227,305.664,-32.227,-51.270,0.000,0
1644798602.519,-37.598,143.066,-29.297,-14.648,0.000,0
1644798602.522,-42.480,-291.016,-39.062,-14.648,0.000,0
1644798602.526,-49.805,-462.891,-38.574,-30.762,0.000,0
1644798602.530,-41.016,-380.371,-33.203,-20.508,0.000,0
1644798602.534,-35.645,-107.910,-41.016,-20.996,0.000,0
1644798602.538,-37.598,181.152,-43.457,-34.180,0.000,0
1644798602.542,-44.434,-158.691,-37.109,-31.738,0.000,0
1644798602.546,-54.688,-817.383,-39.062,-46.387,0.000,0
1644798602.549,-52.246,-950.684,-41.992,-54.199,0.000,0
1644798602.553,-43.945,-274.414,-34.668,-43.457,0.000,0
1644798602.557,-33.691,340.332,-29.297,-29.785,0.000,0
1644798602.561,-46.387,-64.941,-29.297,-22.461,0.000,0
1644798602.565,-72.754,-822.266,-33.203,-33.691,0.000,0
1644798602.568,-64.453,-697.266,-34.180,-54.199,0.000,0
1644798602.572,-38.574,24.902,-35.156,-55.664,0.000,0
1644798602.576,-31.250,112.305,-36.621,-41.016,0.000,0
1644798602.580,-46.387,-289.062,-39.062,-32.227,0.000,0
1644798602.584,-65.430,-441.406,-37.598,-27.344,0.000,0
1644798602.588,-54.199,-522.949,-29.785,-31.738,0.000,0
1644798602.592,-41.504,-681.152,-32.227,-32.715,0.000,0
1644798602.595,-39.551,-632.324,-34.668,-23.438,0.000,0
1644798602.599,-55.664,-38.086,-29.297,-27.832,0.000,0
1644798602.603,-75.684,-220.215,-33.691,-31.738,0.000,0
1644798602.607,-74.707,-625.000,-40.527,-47.363,0.000,0
1644798602.611,-62.500,-169.922,-33.203,-53.223,0.000,0
1644798602.614,-43.457,356.445,-25.879,-38.086,0.000,0
1644798602.618,-37.598,226.074,-29.297,-26.855,0.000,0
1644798602.622,-52.734,-376.465,-33.203,-23.926,0.000,0
1644798602.626,-56.641,-568.359,-33.691,-26.367,0.000,0
1644798602.630,-38.574,-109.863,-28.809,-26.367,0.000,0
1644798602.634,-31.738,65.430,-23.926,-20.020,0.000,0
1644798602.638,-42.480,-502.441,-25.391,-10.742,0.000,0
1644798602.641,-55.176,-932.129,-35.645,-17.578,0.000,0
1644798602.645,-63.965,-792.480,-38.086,-40.527,0.000,0
1644798602.649,-48.828,-486.328,-31.738,-40.039,0.000,0
1644798602.653,-34.668,-118.652,-32.715,-21.484,0.000,0
1644798602.657,-33.691,189.941,-33.691,-25.879,0.000,0
1644798602.660,-37.598,-20.996,-37.598,-31.250,0.000,0
1644798602.664,-38.574,-627.441,-38.086,-33.203,0.000,0
1644798602.668,-38.086,-508.301,-30.273,-47.363,0.000,0
1644798602.672,-37.109,157.227,-25.879,-41.016,0.000,0
1644798602.676,-36.133,344.238,-23.926,-14.648,0.000,0
1644798602.680,-49.316,-367.188,-30.762,-14.160,0.000,0
1644798602.684,-67.383,-979.492,-39.062,-38.086,0.000,0
1644798602.687,-65.430,-422.852,-34.668,-43.457,0.000,0
1644798602.691,-46.387,183.594,-32.227,-34.180,0.000,0
1644798602.695,-40.039,-180.664,-33.691,-27.832,0.000,0
1644798602.699,-50.293,-537.598,-41.504,-24.414,0.000,0
1644798602.703,-69.824,-456.543,-41.504,-46.875,0.000,0
1644798602.707,-64.453,-358.398,-33.203,-51.758,0.000,0
1644798602.711,-41.504,-125.488,-28.809,-29.297,0.000,0
1644798602.714,-41.992,122.070,-35.645,-25.879,0.000,0
1644798602.718,-60.547,122.070,-41.504,-34.180,0.000,0
1644798602.722,-66.406,-439.941,-33.691,-39.062,0.000,0
1644798602.726,-54.688,-782.715,-32.715,-38.574,0.000,0
1644798602.730,-33.203,-464.844,-30.273,-35.156,0.000,0
1644798602.734,-37.598,-61.523,-28.809,-33.691,0.000,0
1644798602.738,-55.664,-166.504,-30.273,-27.832,0.000,0
1644798602.742,-60.547,-812.988,-33.203,-34.180,0.000,0
1644798602.745,-58.594,-663.574,-31.738,-54.199,0.000,0
1644798602.749,-40.527,26.855,-28.809,-44.434,0.000,0
1644798602.753,-27.344,-30.762,-33.203,-18.555,0.000,0
1644798602.757,-41.992,-169.922,-34.668,-18.066,0.000,0
1644798602.761,-64.453,-308.105,-36.133,-27.344,0.000,0
1644798602.765,-71.289,-416.992,-35.645,-50.781,0.000,0
1644798602.769,-50.293,-272.461,-32.227,-53.711,0.000,0
1644798602.772,-39.062,-228.516,-33.691,-28.320,0.000,0
1644798602.776,-38.574,-245.605,-36.133,-28.320,0.000,0
1644798602.780,-56.641,-376.953,-34.668,-39.551,0.000,0
1644798602.784,-70.312,-806.152,-39.062,-42.480,0.000,0
1644798602.788,-43.457,-756.348,-38.574,-45.410,0.000,0
1644798602.792,-35.645,115.234,-31.738,-38.574,0.000,0
1644798602.796,-48.340,225.586,-30.762,-27.832,0.000,0
1644798602.799,-48.340,-428.711,-32.715,-26.367,0.000,0
1644798602.803,-54.688,-650.391,-34.180,-40.039,0.000,0
1644798602.807,-58.594,-223.633,-32.715,-47.363,0.000,0
1644798602.811,-37.598,-43.457,-35.156,-33.691,0.000,0
1644798602.815,-21.973,-86.426,-37.109,-20.020,0.000,0
1644798602.819,-41.016,-446.777,-39.551,-22.949,0.000,0
1644798602.823,-59.570,-880.859,-41.504,-37.109,0.000,0
1644798602.826,-41.016,-653.809,-36.133,-35.645,0.000,0
1644798602.830,-21.973,-633.301,-32.227,-25.879,0.000,0
1644798602.834,-24.902,-330.566,-30.273,-32.715,0.000,0
1644798602.838,-48.828,-56.641,-29.785,-37.598,0.000,0
1644798602.842,-55.664,-622.070,-29.785,-28.320,0.000,0
1644798602.846,-41.504,-579.590,-33.203,-33.691,0.000,0
1644798602.850,-31.738,115.723,-37.598,-37.109,0.000,0
1644798602.854,-28.320,375.488,-35.156,-34.180,0.000,0
1644798602.858,-41.504,-145.020,-37.109,-30.273,0.000,0
1644798602.862,-57.617,-648.438,-43.945,-39.551,0.000,0
1644798602.865,-41.016,-562.012,-38.574,-51.758,0.000,0
1644798602.869,-17.578,-169.434,-33.203,-38.086,0.000,0
1644798602.873,-21.973,-412.109,-34.180,-6.348,0.000,0
1644798602.877,-35.645,-825.195,-34.180,6.836,0.000,0
1644798602.881,-51.270,-494.629,-32.227,-13.184,0.000,0
1644798602.885,-44.434,-339.844,-31.250,-36.621,0.000,0
1644798602.889,-26.855,-166.504,-34.668,-32.227,0.000,0
1644798602.892,-24.902,126.953,-41.016,-21.973,0.000,0
1644798602.896,-38.574,153.809,-48.828,-37.109,0.000,0
1644798602.900,-49.805,-365.723,-46.387,-41.504,0.000,0
1644798602.904,-37.598,-672.852,-41.016,-51.270,0.000,0
1644798602.908,-22.949,-145.996,-43.457,-47.852,0.000,0
1644798602.912,-22.461,97.656,-42.969,-32.227,0.000,0
1644798602.915,-27.344,-304.688,-41.016,-25.391,0.000,0
1644798602.919,-37.109,-816.406,-39.551,-28.320,0.000,0
1644798602.923,-43.945,-678.711,-40.527,-47.852,0.000,0
1644798602.927,-31.250,-199.707,-40.527,-44.922,0.000,0
1644798602.931,-17.578,-99.121,-36.621,-15.625,0.000,0
1644798602.935,-20.996,-614.258,-38.574,-4.883,0.000,0
1644798602.938,-41.016,-791.992,-37.109,-19.043,0.000,0
1644798602.942,-45.898,-437.988,-35.645,-38.574,0.000,0
1644798602.946,-23.926,-287.598,-41.016,-51.270,0.000,0
1644798602.950,-11.230,7.324,-37.598,-36.621,0.000,0
1644798602.954,-22.949,233.887,-34.180,-30.762,0.000,0
1644798602.958,-48.828,-324.707,-36.621,-38.086,0.000,0
1644798602.962,-52.246,-1000.000,-30.273,-29.785,0.000,0
1644798602.966,-26.367,-723.633,-25.879,-18.066,0.000,0
1644798602.969,-15.137,144.531,-23.438,-10.254,0.000,0
1644798602.973,-31.738,310.547,-26.855,6.836,0.000,0
1644798602.977,-49.805,-319.336,-34.668,-13.184,0.000,0
1644798602.981,-52.246,-597.656,-40.527,-52.734,0.000,0
1644798602.985,-42.969,-326.172,-40.527,-50.781,0.000,0
1644798602.988,-29.785,-140.625,-32.715,-38.086,0.000,0
1644798602.992,-22.949,-45.410,-29.785,-24.414,0.000,0
1644798602.996,-40.039,-175.781,-31.738,-22.461,0.000,0
1644798603.000,-49.316,-469.238,-31.250,-29.785,0.000,0
1644798603.004,-36.621,-421.875,-37.598,-34.668,0.000,0
1644798603.008,-24.414,-616.699,-39.062,-14.160,0.000,0
1644798603.012,-40.527,-563.477,-33.203,-13.672,0.000,0
1644798603.016,-63.477,-149.902,-36.621,-37.109,0.000,0
1644798603.019,-46.875,-578.613,-44.922,-36.621,0.000,0
1644798603.023,-33.691,-600.098,-37.109,-45.410,0.000,0
1644798603.027,-54.199,119.629,-25.879,-48.340,0.000,0
1644798603.031,-75.195,410.645,-31.250,-48.340,0.000,0
1644798603.035,-93.262,-95.215,-35.645,-51.270,0.000,0
1644798603.039,-101.074,-687.500,-36.621,-60.547,0.000,0
1644798603.043,-93.262,-551.270,-33.203,-83.008,0.000,0
1644798603.047,-78.613,81.055,-24.414,-80.078,0.000,0
1644798603.050,-87.891,-48.340,-30.273,-77.637,0.000,0
1644798603.054,-100.098,-545.410,-33.691,-76.660,0.000,0
1644798603.058,-110.840,-485.840,-24.902,-80.078,0.000,0
1644798603.062,-113.281,-346.680,-23.438,-97.656,0.000,0
1644798603.066,-105.957,-328.613,-26.367,-103.516,0.000,0
1644798603.070,-129.395,-152.344,-27.832,-101.562,0.000,0
1644798603.074,-151.367,191.406,-34.180,-104.492,0.000,0
1644798603.078,-153.809,-311.523,-39.551,-113.770,0.000,0
1644798603.081,-155.273,-612.305,-34.180,-119.629,0.000,0
1644798603.085,-134.277,-94.238,-29.297,-121.094,0.000,0
1644798603.089,-129.883,357.422,-29.297,-123.047,0.000,0
1644798603.093,-139.648,184.082,-32.715,-114.258,0.000,0
1644798603.097,-138.672,-635.254,-35.156,-100.586,0.000,0
1644798603.101,-131.348,-934.082,-29.785,-104.004,0.000,0
1644798603.105,-102.051,-415.039,-22.949,-108.887,0.000,0
1644798603.109,-85.449,-65.430,-22.461,-96.680,0.000,0
1644798603.112,-87.402,-587.402,-30.273,-81.543,0.000,0
1644798603.116,-100.586,-936.523,-35.156,-98.633,0.000,0
1644798603.120,-90.332,-461.914,-25.879,-106.934,0.000,0
1644798603.124,-63.965,-252.930,-20.020,-81.055,0.000,0
1644798603.128,-56.641,-17.578,-21.973,-54.688,0.000,0
1644798603.132,-49.805,277.344,-22.461,-48.828,0.000,0
1644798603.136,-54.688,-68.359,-27.832,-52.734,0.000,0
1644798603.140,-64.453,-664.062,-35.156,-49.805,0.000,0
1644798603.143,-47.852,-652.344,-33.203,-40.039,0.000,0
1644798603.147,-36.133,-139.648,-20.508,-22.949,0.000,0
1644798603.151,-42.480,175.781,-20.996,-16.113,0.000,0
1644798603.155,-42.480,-425.293,-27.344,-8.789,0.000,0
1644798603.159,-39.062,-1000.000,-29.785,-13.672,0.000,0
1644798603.163,-29.785,-476.562,-32.227,-26.367,0.000,0
1644798603.167,-21.973,194.336,-28.320,-12.207,0.000,0
1644798603.170,-24.902,112.793,-26.367,-9.277,0.000,0
1644798603.174,-22.949,-234.375,-29.297,-4.395,0.000,0
1644798603.178,-29.785,-477.539,-29.785,-10.254,0.000,0
1644798603.182,-28.809,-362.305,-29.785,-38.086,0.000,0
1644798603.186,-7.812,-69.824,-27.832,-21.484,0.000,0
1644798603.190,-7.812,-21.484,-29.297,3.418,0.000,0
1644798603.194,-34.668,-459.473,-31.738,2.930,0.000,0
1644798603.197,-47.363,-881.836,-31.738,-8.789,0.000,0
1644798603.201,-31.738,-1000.000,-31.250,-13.672,0.000,0
1644798603.205,-13.184,-460.938,-29.785,-10.742,0.000,0
1644798603.209,3.418,304.199,-26.855,-9.277,0.000,0
1644798603.213,-11.719,-112.793,-33.691,-7.812,0.000,0
1644798603.217,-34.668,-903.809,-38.086,-6.348,0.000,0
1644798603.221,-19.043,-623.047,-37.598,-19.531,0.000,0
1644798603.225,-2.441,126.953,-38.574,-26.855,0.000,0
1644798603.228,-3.418,137.695,-36.133,-5.859,0.000,0
1644798603.232,-20.508,-176.270,-38.086,3.418,0.000,0
1644798603.236,-31.738,-642.578,-43.945,-14.648,0.000,0
1644798603.240,-29.297,-725.098,-43.457,-20.508,0.000,0
1644798603.244,-15.137,-622.559,-38.086,-4.883,0.000,0
1644798603.248,-7.812,-589.844,-39.551,4.395,0.000,0
1644798603.252,-22.949,-79.102,-43.457,4.395,0.000,0
1644798603.255,-34.668,-327.148,-44.434,0.488,0.000,0
1644798603.259,-27.344,-649.414,-42.969,-6.836,0.000,0
1644798603.263,-7.812,-184.570,-42.480,-11.230,0.000,0
1644798603.267,-4.395,301.758,-38.574,-1.953,0.000,0
1644798603.271,-22.461,101.074,-35.645,-1.465,0.000,0
1644798603.275,-43.945,-660.156,-37.598,-3.418,0.000,0
1644798603.279,-40.527,-789.551,-42.969,-12.695,0.000,0
1644798603.282,-15.625,-337.402,-39.062,-22.461,0.000,0
1644798603.286,0.000,-126.953,-34.668,-20.020,0.000,0
1644798603.290,-5.371,-544.922,-39.551,-4.883,0.000,0
1644798603.294,-22.949,-806.641,-39.551,-0.977,0.000,0
1644798603.298,-32.715,-485.352,-38.086,-21.973,0.000,0
1644798603.302,-13.672,-296.875,-36.133,-24.414,0.000,0
1644798603.306,-2.930,-18.066,-39.551,-14.160,0.000,0
1644798603.309,-8.301,170.410,-41.016,-8.301,0.000,0
1644798603.313,-22.461,-120.117,-37.109,-7.812,0.000,0
1644798603.317,-37.109,-641.602,-38.086,-19.531,0.000,1
1644798603.321,-23.926,-488.770,-41.992,-25.391,0.000,0
1644798603.325,-10.742,192.871,-44.922,-22.461,0.000,0
1644798603.329,-10.742,58.105,-44.434,-6.348,0.000,0
1644798603.333,-25.391,-651.367,-46.387,7.812,0.000,0
1644798603.336,-39.551,-928.223,-42.969,-24.902,0.000,0
1644798603.340,-38.086,-385.254,-33.203,-40.039,0.000,0
1644798603.344,-27.344,283.203,-26.855,-12.207,0.000,0
1644798603.348,-17.090,-223.145,-25.879,-0.977,0.000,0
1644798603.352,-35.156,-785.156,-28.809,-2.930,0.000,0
1644798603.356,-55.664,-485.840,-34.668,-38.086,0.000,0
1644798603.360,-32.227,-352.051,-31.250,-41.504,0.000,0
1644798603.364,-16.602,-151.367,-27.832,-18.066,0.000,0
1644798603.368,-19.531,71.777,-29.785,-1.465,0.000,0
1644798603.371,-28.809,-67.871,-33.691,-13.184,0.000,0
1644798603.375,-41.992,-657.227,-40.039,-42.480,0.000,0
1644798603.379,-34.180,-1000.000,-36.133,-45.410,0.000,0
1644798603.383,-29.785,-525.879,-27.832,-32.227,0.000,0
1644798603.387,-38.574,180.176,-33.203,-28.320,0.000,0
1644798603.391,-45.898,-159.180,-42.480,-29.785,0.000,0
1644798603.395,-60.547,-766.113,-43.945,-33.691,0.000,0
1644798603.399,-62.012,-439.453,-36.621,-34.180,0.000,0
1644798603.402,-33.691,41.016,-36.621,-35.645,0.000,0
1644798603.406,-27.832,-113.281,-41.992,-38.574,0.000,0
1644798603.410,-53.711,-250.488,-40.527,-29.297,0.000,0
1644798603.414,-62.012,-363.770,-45.898,-39.062,0.000,0
1644798603.418,-60.059,-359.863,-46.387,-53.711,0.000,0
1644798603.422,-40.527,-390.137,-36.621,-15.625,0.000,0
1644798603.425,-32.715,-354.980,-31.250,2.930,0.000,0
1644798603.429,-48.828,36.133,-36.133,-29.297,0.000,0
1644798603.433,-57.617,-197.266,-41.992,-46.387,0.000,0
1644798603.437,-48.828,-842.285,-38.086,-43.457,0.000,0
1644798603.441,-29.297,-718.262,-33.203,-38.086,0.000,0
1644798603.445,-27.832,137.207,-32.715,-38.574,0.000,0
1644798603.449,-39.062,63.965,-35.156,-25.879,0.000,0
1644798603.453,-42.480,-592.773,-37.109,-26.367,0.000,0
1644798603.457,-27.832,-583.984,-37.109,-48.828,0.000,0
1644798603.460,-20.996,9.766,-38.086,-50.781,0.000,0
1644798603.464,-28.809,213.867,-40.039,-27.344,0.000,0
1644798603.468,-29.297,-192.871,-42.969,-13.672,0.000,0
1644798603.472,-44.922,-701.660,-44.922,-27.344,0.000,0
1644798603.476,-56.152,-831.543,-40.527,-41.992,0.000,0
1644798603.480,-35.645,-407.227,-29.297,-32.227,0.000,0
1644798603.484,-13.672,-344.727,-26.367,-13.184,0.000,0
1644798603.487,-20.996,-155.273,-32.227,-17.090,0.000,0
1644798603.491,-41.016,-71.777,-37.598,-23.438,0.000,0
1644798603.495,-56.641,-652.832,-47.363,-22.949,0.000,0
1644798603.499,-41.016,-551.270,-43.457,-19.043,0.000,0
1644798603.503,-16.113,115.234,-32.715,6.836,0.000,0
1644798603.507,-17.090,105.957,-34.668,0.488,0.000,0
1644798603.511,-27.832,-484.375,-33.691,-9.766,0.000,0
1644798603.515,-35.156,-996.094,-36.621,-11.230,0.000,0
1644798603.518,-28.809,-686.523,-35.645,-47.852,0.000,0
1644798603.522,-23.438,145.508,-29.785,-54.688,0.000,0
1644798603.526,-20.996,-189.941,-31.738,-22.461,0.000,0
1644798603.530,-30.762,-892.578,-36.621,-6.836,0.000,0
1644798603.534,-48.828,-628.906,-40.527,-27.344,0.000,0
1644798603.538,-28.320,-310.059,-35.645,-36.133,0.000,0
1644798603.542,-5.371,-113.770,-33.203,-19.043,0.000,0
1644798603.546,-15.625,62.988,-37.109,-11.230,0.000,0
1644798603.550,-28.809,35.156,-36.133,-19.043,0.000,0
1644798603.553,-35.645,-428.223,-33.691,-29.297,0.000,0
1644798603.557,-20.508,-566.895,-28.320,-32.227,0.000,0
1644798603.561,-9.277,-231.445,-26.855,-21.484,0.000,0
1644798603.565,-23.926,-51.270,-26.855,-18.066,0.000,0
1644798603.569,-34.668,-298.828,-29.297,-20.996,0.000,0
1644798603.573,-51.270,-878.906,-39.551,-16.602,0.000,0
1644798603.577,-57.617,-680.176,-37.109,-22.461,0.000,0
1644798603.580,-39.551,32.227,-30.762,-27.832,0.000,0
1644798603.584,-25.391,75.195,-34.668,-23.926,0.000,0
1644798603.588,-33.691,-148.926,-35.156,-8.789,0.000,0
1644798603.592,-51.758,-352.051,-30.762,-6.348,0.000,0
1644798603.596,-47.852,-410.156,-27.344,-30.762,0.000,0
1644798603.600,-23.438,-242.676,-30.273,-31.250,0.000,0
1644798603.604,-20.996,-31.250,-32.227,-15.625,0.000,0
1644798603.608,-48.340,-97.168,-30.762,-17.578,0.000,0
1644798603.611,-69.824,-624.512,-31.250,-21.973,0.000,0
1644798603.615,-55.176,-995.117,-31.738,-22.461,0.000,0
1644798603.619,-43.945,-708.984,-37.109,-31.250,0.000,0
1644798603.623,-40.527,-37.598,-39.551,-37.598,0.000,0
1644798603.627,-40.039,31.738,-37.109,-34.180,0.000,0
1644798603.631,-57.129,-415.039,-38.086,-31.250,0.000,0
1644798603.635,-64.941,-587.402,-35.156,-36.621,0.000,0
1644798603.639,-57.617,-94.238,-31.250,-47.852,0.000,0
1644798603.642,-45.410,223.633,-36.621,-33.691,0.000,0
1644798603.646,-54.688,90.820,-40.527,-24.414,0.000,0
1644798603.650,-67.383,-209.473,-41.016,-24.414,0.000,0
1644798603.654,-67.871,-636.230,-39.062,-34.180,0.000,0
1644798603.658,-51.758,-603.516,-32.227,-41.504,0.000,0
1644798603.662,-31.250,-732.422,-31.738,-16.602,0.000,0
1644798603.666,-39.551,-520.020,-38.574,-14.648,0.000,0
1644798603.669,-59.082,-60.059,-35.156,-29.785,0.000,0
1644798603.673,-62.500,-582.520,-35.156,-39.062,0.000,0
1644798603.677,-59.082,-523.926,-38.086,-44.434,0.000,0
1644798603.681,-47.363,21.484,-37.598,-36.621,0.000,0
1644798603.685,-42.480,167.480,-38.574,-22.461,0.000,0
1644798603.689,-57.617,-254.395,-40.527,-28.809,0.000,0
1644798603.693,-79.590,-680.664,-45.410,-51.270,0.000,0
1644798603.697,-65.430,-353.516,-43.945,-51.270,0.000,0
1644798603.701,-42.969,-65.918,-44.922,-44.922,0.000,0
1644798603.705,-45.410,-344.727,-40.039,-28.320,0.000,0
1644798603.708,-53.711,-874.023,-34.180,-14.160,0.000,0
1644798603.712,-68.359,-715.332,-32.715,-40.527,0.000,0
1644798603.716,-72.754,-341.309,-31.250,-41.504,0.000,0
1644798603.720,-49.316,-138.672,-30.762,-30.762,0.000,0
1644798603.724,-41.016,123.047,-29.297,-38.574,0.000,0
1644798603.728,-62.500,175.293,-37.109,-37.109,0.000,0
1644798603.732,-74.219,-356.934,-43.457,-34.180,0.000,0
1644798603.735,-54.688,-606.934,-42.480,-33.691,0.000,0
1644798603.739,-28.320,-215.332,-32.715,-28.809,0.000,0
1644798603.743,-28.320,58.594,-28.320,-13.672,0.000,0
1644798603.747,-38.574,-186.035,-34.668,-2.441,0.000,0
1644798603.751,-55.664,-816.895,-34.668,-9.766,0.000,0
1644798603.755,-66.895,-821.777,-33.691,-29.785,0.000,0
1644798603.759,-51.758,-57.617,-32.227,-31.738,0.000,0
1644798603.762,-34.668,207.520,-31.250,-24.902,0.000,0
1644798603.766,-49.316,-498.047,-33.691,-34.668,0.000,0
1644798603.770,-67.383,-734.863,-33.691,-44.922,0.000,0
1644798603.774,-66.895,-400.879,-32.715,-44.434,0.000,0
1644798603.778,-49.805,-308.105,-30.273,-31.738,0.000,0
1644798603.782,-40.527,-30.273,-29.297,-28.320,0.000,0
1644798603.786,-51.758,211.426,-29.785,-29.297,0.000,0
1644798603.789,-66.406,-148.438,-32.227,-36.133,0.000,0
1644798603.793,-63.965,-799.805,-32.715,-35.156,0.000,0
1644798603.797,-48.340,-822.754,-27.832,-25.391,0.000,0
1644798603.801,-41.992,-92.285,-24.902,-22.949,0.000,0
1644798603.805,-39.551,260.254,-25.879,-22.461,0.000,0
1644798603.809,-59.570,-466.309,-33.203,-12.695,0.000,0
1644798603.813,-77.148,-933.594,-38.086,-37.598,0.000,0
1644798603.816,-60.059,-251.953,-29.785,-53.711,0.000,0
1644798603.821,-37.109,92.285,-26.855,-33.203,0.000,0
1644798603.825,-38.574,-55.664,-33.691,-44.434,0.000,0
1644798603.828,-63.477,-233.887,-42.480,-50.781,0.000,0
1644798603.832,-72.266,-433.105,-41.016,-47.363,0.000,0
1644798603.836,-42.480,-315.430,-37.109,-40.039,0.000,0
1644798603.840,-25.391,-240.723,-37.598,-30.273,0.000,0
1644798603.844,-46.875,-291.016,-32.715,-28.809,0.000,0
1644798603.848,-62.012,-391.113,-30.762,-28.809,0.000,0
1644798603.852,-75.684,-613.281,-31.738,-43.457,0.000,0
1644798603.855,-61.035,-859.375,-34.180,-45.410,0.000,0
1644798603.859,-37.598,-344.238,-32.715,-50.293,0.000,0
1644798603.863,-47.363,349.609,-34.668,-47.363,0.000,0
1644798603.867,-62.012,-119.629,-48.340,-34.668,0.000,0
1644798603.871,-71.777,-720.703,-47.852,-38.086,0.000,0
1644798603.875,-56.152,-443.848,-36.133,-35.645,0.000,0
1644798603.879,-31.738,158.691,-36.621,-29.785,0.000,0
1644798603.883,-25.391,164.062,-40.039,-20.508,0.000,0
1644798603.887,-41.992,-414.551,-40.039,-9.766,0.000,0
1644798603.890,-68.359,-750.977,-39.551,-39.062,0.000,0
1644798603.894,-62.988,-395.508,-35.645,-65.918,0.000,0
1644798603.898,-33.203,-394.043,-34.180,-50.781,0.000,0
1644798603.902,-29.297,-598.145,-36.621,-26.855,0.000,0
1644798603.906,-43.945,-65.918,-32.227,-24.414,0.000,0
1644798603.910,-59.570,-327.637,-31.250,-25.391,0.000,0
1644798603.914,-69.824,-780.762,-33.203,-33.691,0.000,0
1644798603.918,-52.246,-340.820,-35.156,-40.527,0.000,0
1644798603.921,-40.527,281.250,-35.645,-32.715,0.000,0
1644798603.925,-43.457,157.227,-36.133,-18.555,0.000,0
1644798603.929,-60.059,-505.371,-41.504,-31.738,0.000,0
1644798603.933,-62.012,-781.738,-40.039,-48.828,0.000,0
1644798603.937,-36.621,-405.273,-36.621,-38.574,0.000,0
1644798603.941,-40.527,-129.883,-35.645,-33.203,0.000,0
1644798603.945,-51.270,-541.992,-36.621,-23.926,0.000,0
1644798603.949,-58.594,-764.160,-38.574,-13.672,0.000,0
1644798603.952,-70.312,-464.355,-36.133,-29.297,0.000,0
1644798603.956,-54.199,-228.027,-35.156,-44.434,0.000,0
1644798603.960,-45.898,33.691,-34.668,-46.387,0.000,0
1644798603.964,-60.547,209.961,-37.109,-40.527,0.000,0
1644798603.968,-73.730,-143.555,-38.574,-36.621,0.000,0
1644798603.972,-76.172,-735.840,-35.645,-41.504,0.000,0
1644798603.976,-59.082,-575.195,-36.133,-48.340,0.000,0
1644798603.980,-39.551,-76.660,-35.156,-33.691,0.000,0
1644798603.983,-44.434,-118.164,-30.762,-25.879,0.000,0
1644798603.987,-61.523,-626.953,-31.250,-28.809,0.000,0
1644798603.991,-62.988,-920.898,-35.156,-19.043,0.000,0
1644798603.995,-50.293,-303.223,-32.227,-24.902,0.000,0
1644798603.999,-25.879,227.539,-28.809,-32.227,0.000,0
1644798604.003,-20.020,104.980,-31.250,-31.250,0.000,0
1644798604.007,-49.805,-223.145,-33.203,-28.809,0.000,0
1644798604.011,-65.918,-467.773,-31.738,-32.227,0.000,0
1644798604.015,-51.270,-351.074,-31.738,-36.133,0.000,0
1644798604.018,-39.551,-43.457,-34.668,-24.414,0.000,0
1644798604.022,-42.480,108.887,-38.574,-24.902,0.000,0
1644798604.026,-44.434,-345.703,-38.086,-19.531,0.000,0
1644798604.030,-46.387,-912.109,-40.039,-26.855,0.000,0
1644798604.034,-46.387,-985.352,-45.410,-38.574,0.000,0
1644798604.038,-43.945,-523.926,-44.922,-24.902,0.000,0
1644798604.042,-38.086,159.180,-41.504,-21.484,0.000,0
1644798604.045,-41.992,-74.707,-38.086,-20.020,0.000,0
1644798604.049,-60.547,-725.098,-39.062,-31.738,0.000,0
1644798604.053,-53.223,-473.145,-36.133,-52.734,0.000,0
1644798604.057,-26.367,149.414,-27.832,-48.340,0.000,0
1644798604.061,-26.367,111.816,-34.668,-43.945,0.000,0
1644798604.065,-42.969,-174.316,-42.480,-39.551,0.000,0
1644798604.069,-60.059,-462.402,-43.457,-36.133,0.000,0
1644798604.073,-49.316,-631.348,-41.016,-41.992,0.000,0
1644798604.076,-34.180,-602.051,-37.598,-34.668,0.000,0
1644798604.080,-36.621,-543.457,-35.645,-20.020,0.000,0
1644798604.084,-42.480,-40.527,-33.691,-28.809,0.000,0
1644798604.088,-56.641,-358.887,-40.527,-40.039,0.000,0
1644798604.092,-55.176,-731.445,-42.480,-45.898,0.000,0
1644798604.096,-28.809,-166.504,-34.668,-31.738,0.000,0
1644798604.100,-14.648,342.285,-31.250,-12.695,0.000,0
1644798604.103,-32.715,169.922,-42.480,-30.273,0.000,1
1644798604.107,-49.316,-525.879,-48.340,-33.203,0.000,0
1644798604.111,-49.805,-614.258,-34.668,-28.809,0.000,0
1644798604.115,-27.832,-80.566,-25.879,-28.320,0.000,0
1644798604.119,-25.879,45.898,-35.645,-31.250,0.000,0
1644798604.123,-49.316,-533.691,-44.922,-31.738,0.000,0
1644798604.127,-63.965,-920.410,-41.992,-35.156,0.000,0
1644798604.131,-72.754,-514.160,-35.156,-52.734,0.000,0
1644798604.134,-44.434,-204.102,-32.715,-53.711,0.000,0
1644798604.138,-20.020,-1.953,-36.621,-39.062,0.000,0
1644798604.142,-34.180,231.445,-38.086,-26.367,0.000,0
1644798604.146,-51.758,-105.957,-40.527,-31.250,0.000,0
1644798604.150,-51.270,-757.812,-42.969,-43.457,0.000,0
1644798604.154,-41.016,-498.047,-33.203,-40.039,0.000,0
1644798604.158,-28.320,248.047,-25.391,-27.832,0.000,0
1644798604.162,-36.621,268.066,-33.203,-24.902,0.000,0
1644798604.166,-47.852,-525.391,-43.945,-5.371,0.000,0
1644798604.170,-58.594,-952.148,-47.363,-13.672,0.000,0
1644798604.173,-61.035,-328.125,-42.969,-41.504,0.000,0
1644798604.177,-38.086,301.758,-39.062,-42.969,0.000,0
1644798604.181,-31.738,-97.168,-41.992,-37.109,0.000,0
1644798604.185,-44.922,-597.656,-39.551,-35.645,0.000,0
1644798604.189,-55.664,-493.164,-35.645,-42.969,0.000,0
1644798604.193,-44.434,-305.176,-32.715,-30.762,0.000,0
1644798604.197,-25.391,-78.125,-30.762,-30.762,0.000,0
1644798604.201,-32.715,73.242,-29.297,-43.945,0.000,0
1644798604.205,-54.688,-75.684,-31.738,-38.086,0.000,0
1644798604.208,-66.406,-704.590,-36.133,-43.457,0.000,0
1644798604.212,-51.758,-835.449,-36.621,-62.012,0.000,0
1644798604.216,-35.156,-383.301,-34.668,-59.570,0.000,0
1644798604.220,-39.062,-57.129,-33.691,-40.039,0.000,0
1644798604.224,-39.062,-207.031,-39.062,-29.785,0.000,0
1644798604.228,-47.852,-847.168,-44.434,-27.344,0.000,0
1644798604.232,-56.641,-691.406,-38.574,-19.043,0.000,0
1644798604.235,-42.480,90.820,-31.738,-33.691,0.000,0
1644798604.240,-35.645,112.305,-32.227,-47.363,0.000,0
1644798604.244,-50.293,-228.027,-33.203,-33.691,0.000,0
1644798604.247,-65.918,-376.953,-29.785,-34.668,0.000,0
1644798604.251,-56.152,-320.801,-26.855,-48.828,0.000,0
1644798604.255,-45.410,-157.227,-26.855,-40.527,0.000,0
1644798604.259,-34.180,-223.633,-22.461,-16.602,0.000,0
1644798604.263,-38.086,-254.395,-27.344,-18.555,0.000,0
1644798604.267,-54.199,-540.527,-31.250,-28.809,0.000,0
1644798604.271,-44.434,-975.098,-34.180,-31.738,0.000,0
1644798604.274,-15.137,-671.875,-36.621,-33.203,0.000,0
1644798604.278,-21.973,176.270,-34.668,-35.645,0.000,0
1644798604.282,-44.434,183.105,-34.180,-38.574,0.000,0
1644798604.286,-46.387,-457.520,-31.738,-27.344,0.000,0
1644798604.290,-51.270,-586.914,-29.297,-37.598,0.000,0
1644798604.294,-38.574,-45.410,-28.320,-46.387,0.000,0
1644798604.298,-23.926,213.379,-25.391,-22.461,0.000,0
1644798604.302,-34.180,-53.223,-32.227,-16.602,0.000,0
1644798604.306,-48.828,-539.062,-40.527,-27.832,0.000,0
1644798604.309,-46.387,-830.566,-33.691,-39.062,0.000,0
1644798604.313,-28.320,-468.262,-27.832,-32.715,0.000,0
1644798604.317,-16.113,-661.621,-33.203,-13.672,0.000,0
1644798604.321,-29.785,-757.812,-32.227,-9.766,0.000,0
1644798604.325,-55.176,-367.188,-31.250,-28.320,0.000,0
1644798604.329,-52.246,-685.547,-33.691,-40.039,0.000,0
1644798604.333,-33.691,-472.656,-32.227,-49.805,0.000,0
1644798604.337,-20.996,216.797,-39.062,-36.133,0.000,0
1644798604.341,-14.648,327.637,-43.457,-21.973,0.000,0
1644798604.344,-19.043,-226.562,-42.480,-25.391,0.000,0
1644798604.348,-38.086,-681.152,-41.504,-24.902,0.000,0
1644798604.352,-21.484,-549.316,-39.062,-29.785,0.000,0
1644798604.356,-1.465,1.465,-35.156,-32.715,0.000,0
1644798604.360,-8.789,-142.090,-40.527,-29.297,0.000,0
1644798604.364,-31.738,-840.332,-41.016,-19.531,0.000,0
1644798604.368,-50.293,-581.543,-33.691,-29.785,0.000,0
1644798604.371,-33.691,-222.168,-35.156,-42.480,0.000,0
1644798604.375,-23.438,-0.488,-36.133,-41.504,0.000,0
1644798604.379,-21.973,148.438,-34.668,-27.344,0.000,0
1644798604.383,-28.809,-92.773,-34.668,-21.484,0.000,0
1644798604.387,-48.340,-499.512,-37.598,-27.832,0.000,0
1644798604.391,-27.832,-534.668,-34.668,-36.133,0.000,0
1644798604.395,0.977,-71.289,-29.297,-28.320,0.000,0
1644798604.399,-9.766,21.484,-31.738,-20.020,0.000,0
1644798604.403,-35.645,-330.078,-36.133,-19.531,0.000,0
1644798604.406,-43.945,-828.125,-35.156,-13.672,0.000,0
1644798604.410,-40.527,-705.566,-33.691,-29.297,0.000,0
1644798604.414,-25.391,92.285,-36.133,-41.016,0.000,0
1644798604.418,-27.832,182.617,-38.574,-25.879,0.000,0
1644798604.422,-36.133,-116.699,-37.109,-8.301,0.000,0
1644798604.426,-42.969,-297.363,-41.504,-22.949,0.000,0
1644798604.430,-37.109,-309.082,-41.992,-31.738,0.000,0
1644798604.434,-7.812,-122.559,-33.691,-22.461,0.000,0
1644798604.437,-11.719,-10.254,-34.180,-39.062,0.000,0
1644798604.441,-32.715,-71.777,-36.133,-33.203,0.000,0
1644798604.445,-36.621,-571.289,-35.156,-14.648,0.000,0
1644798604.449,-30.762,-1000.000,-36.621,-20.508,0.000,0
1644798604.453,-19.043,-658.691,-35.645,-32.227,0.000,0
1644798604.457,-20.020,96.680,-36.133,-36.133,0.000,0
1644798604.461,-39.062,249.023,-42.480,-34.180,0.000,0
1644798604.465,-48.828,-510.254,-44.434,-26.855,0.000,0
1644798604.468,-53.711,-845.703,-35.645,-21.484,0.000,0
1644798604.472,-34.180,-50.781,-26.367,-22.949,0.000,0
1644798604.476,-10.742,278.809,-20.020,-10.254,0.000,0
1644798604.480,-26.855,37.109,-21.973,-7.812,0.000,0
1644798604.484,-51.758,-227.539,-29.297,-20.508,0.000,0
1644798604.488,-50.781,-419.922,-25.879,-31.738,0.000,0
1644798604.492,-23.438,-410.156,-23.438,-30.273,0.000,0
1644798604.496,-10.742,-632.324,-25.879,-19.531,0.000,0
1644798604.499,-13.184,-605.469,-28.320,-18.066,0.000,0
1644798604.503,-35.156,-323.242,-31.250,-30.762,0.000,0
1644798604.507,-64.941,-608.398,-33.203,-41.992,0.000,0
1644798604.511,-57.617,-507.324,-35.156,-47.363,0.000,0
1644798604.515,-35.645,116.211,-32.227,-40.527,0.000,0
1644798604.519,-40.039,336.426,-31.738,-30.273,0.000,0
1644798604.523,-53.223,-143.066,-29.785,-29.785,0.000,0
1644798604.526,-59.082,-655.273,-25.391,-30.762,0.000,0
1644798604.530,-46.875,-308.594,-22.949,-49.316,0.000,0
1644798604.534,-32.715,214.355,-24.902,-46.875,0.000,0
1644798604.538,-35.156,-168.945,-31.250,-26.855,0.000,0
1644798604.542,-51.758,-701.172,-34.668,-27.832,0.000,0
1644798604.546,-69.336,-547.363,-36.133,-39.551,0.000,0
1644798604.550,-63.477,-223.633,-37.109,-47.363,0.000,0
1644798604.554,-43.457,-285.645,-37.109,-35.156,0.000,0
1644798604.557,-39.062,-369.629,-34.668,-21.973,0.000,0
1644798604.561,-43.945,-21.484,-34.180,-26.855,0.000,0
1644798604.565,-56.641,-352.539,-36.621,-35.645,0.000,0
1644798604.569,-47.852,-592.773,-36.133,-48.340,0.000,0
1644798604.573,-21.973,-152.832,-35.645,-41.504,0.000,0
1644798604.577,-32.715,270.996,-39.062,-25.391,0.000,0
1644798604.581,-50.293,69.824,-48.340,-37.109,0.000,0
1644798604.585,-55.176,-696.777,-51.758,-44.434,0.000,0
1644798604.589,-46.875,-952.148,-41.504,-43.457,0.000,0
1644798604.593,-36.133,-395.020,-28.809,-41.504,0.000,0
1644798604.596,-23.438,32.715,-26.855,-23.438,0.000,0
1644798604.600,-24.414,-439.941,-31.250,-15.625,0.000,0
1644798604.604,-50.781,-694.336,-34.180,-41.992,0.000,0
1644798604.608,-44.434,-328.125,-35.645,-56.152,0.000,0
1644798604.612,-23.926,-186.523,-36.133,-35.645,0.000,0
1644798604.616,-20.020,-136.719,-30.762,-23.438,0.000,0
1644798604.620,-31.250,79.590,-31.250,-46.387,0.000,0
1644798604.624,-56.152,-159.180,-36.621,-48.340,0.000,0
1644798604.628,-57.129,-668.457,-38.574,-40.039,0.000,0
1644798604.631,-40.527,-649.902,-34.668,-43.457,0.000,0
1644798604.635,-33.691,-76.172,-29.785,-36.133,0.000,0
1644798604.639,-45.410,248.047,-30.762,-25.879,0.000,0
1644798604.643,-57.617,-429.688,-33.203,-15.137,0.000,0
1644798604.647,-50.781,-970.215,-34.180,-18.555,0.000,0
1644798604.651,-35.156,-322.266,-31.250,-39.062,0.000,0
1644798604.655,-27.344,215.820,-30.762,-37.598,0.000,0
1644798604.659,-34.668,48.828,-28.320,-20.508,0.000,0
1644798604.663,-50.781,-297.852,-29.297,-23.926,0.000,0
1644798604.667,-50.781,-450.195,-31.250,-24.902,0.000,0
1644798604.670,-32.227,-302.734,-28.320,-35.156,0.000,0
1644798604.674,-27.832,-145.996,-29.785,-52.246,0.000,0
1644798604.678,-42.480,-181.152,-35.156,-43.457,0.000,0
1644798604.682,-52.734,-482.910,-33.691,-32.715,0.000,0
1644798604.686,-48.828,-804.688,-31.738,-32.715,0.000,0
1644798604.690,-43.945,-908.691,-31.250,-41.016,0.000,0
1644798604.694,-39.062,-307.617,-23.926,-36.621,0.000,0
1644798604.697,-36.133,343.750,-25.879,-33.203,0.000,0
1644798604.701,-47.363,-144.043,-37.598,-38.086,0.000,0
1644798604.705,-63.965,-729.492,-38.086,-42.480,0.000,0
1644798604.709,-63.477,-374.512,-36.621,-43.945,0.000,0
1644798604.713,-43.457,183.594,-37.598,-37.109,0.000,0
1644798604.717,-35.645,148.438,-38.086,-24.902,0.000,0
1644798604.721,-47.363,-224.121,-36.133,-12.695,0.000,0
1644798604.725,-60.547,-691.406,-39.062,-20.996,0.000,0
1644798604.729,-60.547,-594.727,-38.086,-56.152,0.000,0
1644798604.732,-28.809,-429.199,-32.715,-35.645,0.000,0
1644798604.736,-19.531,-692.383,-31.738,-15.137,0.000,0
1644798604.740,-46.387,-262.695,-31.250,-36.621,0.000,0
1644798604.744,-58.594,-333.008,-35.156,-40.039,0.000,0
1644798604.748,-48.340,-729.980,-35.156,-37.109,0.000,0
1644798604.752,-26.855,-270.020,-30.273,-22.949,0.000,0
1644798604.756,-19.531,324.707,-26.367,-8.301,0.000,0
1644798604.760,-29.785,143.066,-30.762,-2.930,0.000,0
1644798604.764,-45.410,-526.855,-37.109,-16.113,0.000,0
1644798604.767,-46.875,-683.594,-38.574,-25.391,0.000,0
1644798604.771,-40.039,-288.574,-36.133,-40.527,0.000,0
1644798604.775,-36.133,-84.473,-37.109,-37.109,0.000,0
1644798604.779,-36.133,-576.660,-39.551,-22.461,0.000,0
1644798604.783,-48.340,-790.039,-37.598,-43.457,0.000,0
1644798604.787,-60.059,-446.777,-34.180,-61.035,0.000,0
1644798604.791,-44.434,-383.301,-32.715,-45.410,0.000,0
1644798604.795,-30.273,-111.328,-31.738,-30.762,0.000,0
1644798604.799,-35.156,172.852,-36.133,-31.250,0.000,0
1644798604.802,-58.594,-106.934,-42.969,-31.738,0.000,0
1644798604.806,-61.035,-636.719,-41.504,-36.133,0.000,0
1644798604.810,-40.527,-420.898,-35.645,-49.805,0.000,0
1644798604.814,-34.668,202.637,-36.621,-41.504,0.000,0
1644798604.818,-33.691,24.414,-40.527,-33.691,0.000,0
1644798604.822,-46.875,-621.094,-45.410,-20.020,0.000,0
1644798604.826,-42.480,-950.684,-41.992,-19.531,0.000,0
1644798604.829,-38.086,-329.590,-35.156,-51.758,0.000,0
1644798604.833,-40.039,282.715,-37.598,-46.387,0.000,0
1644798604.837,-42.969,118.652,-37.598,-35.156,0.000,0
1644798604.841,-59.082,-218.262,-44.922,-44.922,0.000,0
1644798604.845,-63.477,-397.949,-48.340,-55.664,0.000,0
1644798604.849,-51.270,-406.250,-43.945,-45.898,0.000,0
1644798604.853,-37.109,-144.043,-45.410,-41.992,0.000,0
1644798604.857,-41.992,157.227,-47.852,-48.340,0.000,0
1644798604.861,-61.035,-38.086,-51.270,-52.246,0.000,0
1644798604.864,-72.754,-672.363,-52.246,-68.359,0.000,0
1644798604.868,-61.523,-992.188,-44.434,-66.895,0.000,0
1644798604.872,-41.992,-608.398,-39.062,-43.945,0.000,0
1644798604.876,-44.434,88.379,-36.133,-39.062,0.000,0
1644798604.880,-63.965,-62.988,-42.480,-42.480,0.000,0
1644798604.884,-65.918,-688.477,-49.316,-42.480,0.000,0
1644798604.888,-51.758,-470.215,-43.945,-45.410,0.000,0
1644798604.892,-29.297,197.754,-42.969,-49.805,0.000,0
1644798604.895,-27.832,190.918,-43.945,-36.621,0.000,0
1644798604.899,-42.969,-173.828,-40.527,-19.043,0.000,0
1644798604.903,-62.500,-339.355,-36.621,-19.531,0.000,0
1644798604.907,-60.547,-388.672,-37.109,-39.062,0.000,0
1644798604.911,-25.879,-522.461,-32.715,-42.969,0.000,0
1644798604.915,-10.742,-437.988,-19.043,-7.812,0.000,0
1644798604.919,-31.738,10.254,-23.926,-9.766,0.000,0
1644798604.922,-54.199,-251.465,-31.250,-21.484,0.000,0
1644798604.926,-46.875,-813.965,-31.738,-21.973,0.000,0
1644798604.930,-33.203,-469.238,-29.297,-31.738,0.000,0
1644798604.934,-35.156,270.508,-25.879,-25.391,0.000,0
1644798604.938,-40.039,174.805,-34.180,-28.809,0.000,0
1644798604.942,-48.828,-477.051,-39.062,-37.598,0.000,0
1644798604.946,-48.340,-625.977,-34.180,-43.457,0.000,0
1644798604.950,-19.043,-39.062,-29.785,-35.156,0.000,0
1644798604.954,-9.277,211.914,-28.809,-16.113,0.000,0
1644798604.958,-26.367,-206.055,-28.320,-18.555,0.000,0
1644798604.961,-43.945,-758.789,-32.227,-31.250,0.000,0
1644798604.965,-51.758,-894.531,-42.969,-51.270,0.000,0
1644798604.969,-41.504,-539.551,-47.363,-59.570,0.000,0
1644798604.973,-28.809,-309.570,-41.992,-38.086,0.000,0
1644798604.977,-41.504,-77.148,-34.668,-35.156,0.000,0
1644798604.981,-62.012,-133.301,-36.133,-39.062,0.000,0
1644798604.985,-48.828,-661.621,-40.039,-42.969,0.000,0
1644798604.989,-26.367,-719.238,-37.109,-43.945,0.000,1
1644798604.993,-21.484,-44.434,-31.250,-30.762,0.000,0
1644798604.997,-28.320,312.500,-31.250,-26.367,0.000,0
1644798605.000,-38.574,-309.570,-34.668,-14.648,0.000,0
1644798605.004,-47.363,-966.309,-34.180,-24.414,0.000,0
1644798605.008,-42.480,-558.105,-33.691,-53.223,0.000,0
1644798605.012,-27.832,255.859,-28.320,-49.805,0.000,0
1644798605.016,-27.832,-104.492,-27.832,-21.973,0.000,0
1644798605.020,-46.387,-854.004,-34.668,-23.438,0.000,0
1644798605.024,-57.617,-779.297,-33.203,-45.898,0.000,0
1644798605.028,-53.223,-463.867,-30.762,-44.922,0.000,0
1644798605.032,-44.434,-34.668,-32.715,-35.156,0.000,0
1644798605.036,-48.828,174.805,-34.180,-31.738,0.000,0
1644798605.039,-63.965,12.207,-35.156,-28.320,0.000,0
1644798605.043,-62.500,-494.141,-39.062,-28.320,0.000,0
1644798605.047,-51.758,-604.492,-39.062,-40.039,0.000,0
1644798605.051,-35.156,-293.945,-36.621,-30.762,0.000,0
1644798605.055,-32.227,-123.047,-39.551,-36.621,0.000,0
1644798605.059,-44.922,-333.008,-39.062,-39.062,0.000,0
1644798605.063,-52.734,-890.137,-39.551,-27.344,0.000,0
1644798605.067,-48.828,-788.574,-37.109,-42.969,0.000,0
1644798605.070,-36.621,95.703,-31.738,-41.504,0.000,0
1644798605.074,-34.180,260.742,-32.227,-25.391,0.000,0
1644798605.078,-50.293,-163.086,-33.203,-23.438,0.000,0
1644798605.082,-62.500,-562.500,-30.762,-16.602,0.000,0
1644798605.086,-58.594,-482.422,-29.297,-30.762,0.000,0
1644798605.090,-34.180,-106.934,-30.273,-33.691,0.000,0
1644798605.094,-25.879,25.391,-35.156,-26.855,0.000,0
1644798605.098,-34.180,-209.961,-40.039,-30.273,0.000,0
1644798605.102,-49.805,-577.637,-38.086,-42.480,0.000,0
1644798605.105,-54.199,-810.547,-39.062,-49.316,0.000,0
1644798605.109,-34.668,-718.750,-36.133,-39.062,0.000,0
1644798605.113,-42.969,126.953,-32.227,-25.879,0.000,0
1644798605.117,-59.082,217.773,-36.621,-15.137,0.000,0
1644798605.121,-66.895,-460.449,-41.016,-20.508,0.000,0
1644798605.125,-68.848,-575.684,-36.133,-40.527,0.000,0
1644798605.129,-53.711,-13.184,-30.273,-51.270,0.000,0
1644798605.133,-38.086,258.301,-28.809,-32.715,0.000,0
1644798605.137,-41.504,30.273,-35.156,-24.902,0.000,0
1644798605.140,-47.852,-453.125,-39.062,-31.250,0.000,0
1644798605.144,-35.645,-776.855,-33.691,-33.203,0.000,0
1644798605.148,-15.137,-481.934,-31.250,-31.250,0.000,0
1644798605.152,-10.742,-575.195,-32.715,-24.902,0.000,0
1644798605.156,-24.902,-464.355,-31.250,-13.184,0.000,0
1644798605.160,-51.270,-115.723,-30.273,-13.672,0.000,0
1644798605.164,-65.430,-516.113,-30.762,-32.227,0.000,0
1644798605.168,-47.363,-438.477,-29.785,-37.598,0.000,0
1644798605.172,-38.574,164.551,-32.227,-23.438,0.000,0
1644798605.175,-52.246,362.305,-36.621,-24.414,0.000,0
1644798605.179,-65.430,-238.281,-44.922,-27.832,0.000,0
1644798605.183,-65.918,-735.352,-48.828,-33.691,0.000,0
1644798605.187,-48.340,-311.035,-41.992,-40.527,0.000,0
1644798605.191,-35.156,7.812,-38.574,-39.551,0.000,0
1644798605.195,-34.180,-367.188,-38.086,-27.344,0.000,0
1644798605.199,-49.805,-954.590,-40.527,-19.043,0.000,0
1644798605.203,-56.641,-786.133,-42.969,-38.086,0.000,0
1644798605.206,-35.156,-286.621,-36.621,-32.715,0.000,0
1644798605.210,-23.926,-43.457,-31.738,-26.367,0.000,0
1644798605.214,-39.062,101.562,-39.551,-40.527,0.000,0
1644798605.218,-52.246,91.797,-44.434,-36.133,0.000,0
1644798605.222,-58.594,-354.004,-45.898,-50.293,0.000,0
1644798605.226,-51.758,-550.293,-41.016,-62.012,0.000,0
1644798605.230,-36.133,-22.461,-35.645,-44.434,0.000,0
1644798605.234,-30.762,264.160,-30.762,-27.832,0.000,0
1644798605.237,-31.738,-211.914,-30.762,-21.484,0.000,0
1644798605.241,-46.875,-864.258,-41.016,-25.391,0.000,0
1644798605.245,-58.105,-869.141,-40.527,-34.668,0.000,0
1644798605.249,-38.574,-72.266,-31.738,-39.551,0.000,0
1644798605.253,-36.133,192.383,-26.367,-13.184,0.000,0
1644798605.257,-45.410,-319.336,-28.809,-2.930,0.000,0
1644798605.261,-62.012,-614.258,-35.156,-23.926,0.000,0
1644798605.265,-63.477,-349.121,-41.504,-34.180,0.000,0
1644798605.269,-34.180,-100.586,-42.480,-28.320,0.000,0
1644798605.272,-26.855,-24.902,-37.109,-34.180,0.000,0
1644798605.276,-42.969,126.465,-37.109,-36.621,0.000,0
1644798605.280,-63.965,-161.621,-43.945,-32.227,0.000,0
1644798605.284,-63.477,-800.293,-44.434,-37.109,0.000,0
1644798605.288,-40.527,-799.316,-39.062,-37.598,0.000,0
1644798605.292,-23.438,-38.086,-30.762,-25.879,0.000,0
1644798605.296,-39.062,197.266,-28.809,-26.367,0.000,0
1644798605.299,-70.312,-472.168,-39.062,-41.016,0.000,0
1644798605.303,-70.801,-753.418,-44.434,-50.781,0.000,0
1644798605.307,-52.734,-138.184,-42.480,-55.664,0.000,0
1644798605.311,-38.086,232.910,-39.551,-38.574,0.000,0
1644798605.315,-46.875,-152.832,-41.992,-36.133,0.000,0
1644798605.319,-62.500,-515.625,-36.621,-34.668,0.000,0
1644798605.323,-69.336,-463.867,-39.062,-36.621,0.000,0
1644798605.327,-52.246,-224.609,-43.457,-31.250,0.000,0
1644798605.331,-27.832,-203.613,-35.645,-7.324,0.000,0
1644798605.335,-30.762,-308.105,-35.645,-14.160,0.000,0
1644798605.339,-49.805,-449.219,-39.062,-27.344,0.000,0
1644798605.342,-57.129,-687.988,-37.109,-23.926,0.000,0
1644798605.346,-40.527,-744.629,-29.785,-19.531,0.000,0
1644798605.350,-39.062,-187.500,-28.320,-21.484,0.000,0
1644798605.354,-64.941,329.102,-34.180,-28.320,0.000,0
1644798605.358,-71.289,-143.555,-39.551,-36.133,0.000,0
1644798605.362,-76.660,-664.062,-39.062,-53.711,0.000,0
1644798605.366,-82.520,-280.762,-34.180,-54.688,0.000,0
1644798605.370,-80.078,230.957,-37.109,-55.664,0.000,0
1644798605.374,-86.426,107.422,-40.039,-82.031,0.000,0
1644798605.377,-106.934,-423.340,-43.945,-91.309,0.000,0
1644798605.381,-125.000,-792.969,-49.316,-100.098,0.000,0
1644798605.385,-119.141,-304.199,-37.598,-114.258,0.000,0
1644798605.389,-110.840,-215.332,-38.086,-107.910,0.000,0
1644798605.393,-117.188,-563.477,-43.945,-104.004,0.000,0
1644798605.397,-140.625,-82.031,-39.062,-124.512,0.000,0
1644798605.401,-165.527,-294.922,-47.852,-140.625,0.000,0
1644798605.405,-167.480,-512.207,-52.246,-165.527,0.000,0
1644798605.409,-161.621,11.230,-45.898,-183.105,0.000,0
1644798605.413,-167.480,442.871,-45.410,-182.129,0.000,0
1644798605.416,-187.012,238.281,-47.363,-175.293,0.000,0
1644798605.420,-214.355,-431.641,-53.223,-185.547,0.000,0
1644798605.424,-208.984,-678.223,-48.340,-200.684,0.000,0
1644798605.428,-178.223,-245.117,-35.156,-187.988,0.000,0
1644798605.432,-165.527,-10.254,-35.645,-172.363,0.000,0
1644798605.436,-179.199,-370.117,-39.062,-164.062,0.000,0
1644798605.440,-195.312,-565.430,-38.086,-161.621,0.000,0
1644798605.444,-177.246,-256.348,-37.109,-171.875,0.000,0
1644798605.447,-138.184,-57.617,-39.062,-150.391,0.000,0
1644798605.452,-119.629,-275.879,-38.574,-107.910,0.000,0
1644798605.456,-112.793,-65.430,-36.133,-91.797,0.000,0
1644798605.460,-117.676,-62.988,-39.062,-88.379,0.000,0
1644798605.463,-105.957,-518.066,-37.109,-80.566,0.000,0
1644798605.467,-73.242,-354.980,-23.926,-66.895,0.000,0
1644798605.471,-47.363,-29.297,-18.066,-46.387,0.000,0
1644798605.475,-42.969,-117.188,-21.973,-19.043,0.000,0
1644798605.479,-43.945,-630.371,-27.344,-2.441,0.000,0
1644798605.483,-36.133,-900.879,-22.949,-6.348,0.000,0
1644798605.487,-23.438,-229.980,-20.996,-19.531,0.000,0
1644798605.491,-11.719,104.492,-22.461,-8.789,0.000,0
1644798605.494,-11.230,-114.258,-20.996,7.812,0.000,0
1644798605.498,-18.066,-367.676,-21.973,8.301,0.000,0
1644798605.502,-25.391,-464.844,-24.902,-3.906,0.000,0
1644798605.506,-11.230,-214.355,-20.996,-1.953,0.000,0
1644798605.510,8.301,16.113,-22.949,8.301,0.000,0
1644798605.514,0.977,132.812,-27.832,7.812,0.000,0
1644798605.518,-13.672,-287.598,-31.738,17.578,0.000,0
1644798605.522,-21.484,-821.289,-35.156,6.836,0.000,0
1644798605.526,-14.160,-718.750,-25.879,1.953,0.000,0
1644798605.529,9.277,-67.871,-21.973,15.137,0.000,0
1644798605.533,12.207,349.609,-21.484,23.926,0.000,0
1644798605.537,0.488,-54.688,-21.973,31.250,0.000,0
1644798605.541,-4.883,-834.473,-26.855,34.180,0.000,0
1644798605.545,7.812,-535.645,-23.438,18.066,0.000,0
1644798605.549,26.367,80.566,-21.973,7.324,0.000,0
1644798605.553,30.273,-117.676,-26.367,22.949,0.000,0
1644798605.557,11.230,-302.246,-27.832,33.691,0.000,0
1644798605.561,-9.277,-472.168,-33.203,20.508,0.000,0
1644798605.564,-4.883,-577.148,-38.574,3.906,0.000,0
1644798605.568,15.137,-553.711,-30.762,26.855,0.000,0
1644798605.572,32.227,-565.430,-23.926,50.781,0.000,0
1644798605.576,27.832,-140.625,-24.902,33.691,0.000,0
1644798605.580,-3.418,-265.137,-32.227,19.531,0.000,0
1644798605.584,-2.441,-579.590,-34.668,6.836,0.000,0
1644798605.588,20.020,-164.551,-37.109,1.465,0.000,0
1644798605.592,29.785,370.117,-32.715,13.184,0.000,0
1644798605.596,25.391,187.988,-29.785,24.902,0.000,0
1644798605.599,2.930,-484.375,-39.062,27.832,0.000,0
1644798605.603,2.930,-522.949,-35.156,7.812,0.000,0
1644798605.607,12.207,-98.145,-26.855,6.348,0.000,0
1644798605.611,20.020,-17.578,-23.926,31.250,0.000,0
1644798605.615,17.578,-496.582,-28.320,33.203,0.000,0
1644798605.619,-10.254,-959.961,-33.203,8.301,0.000,0
1644798605.623,-17.090,-632.812,-30.762,-0.488,0.000,0
1644798605.626,2.930,-191.895,-28.320,8.789,0.000,0
1644798605.630,16.113,-25.391,-30.273,13.672,0.000,0
1644798605.634,-3.418,166.016,-31.250,9.277,0.000,0
1644798605.638,-28.809,-32.227,-31.250,-3.418,0.000,0
1644798605.642,-28.320,-575.195,-31.250,-10.254,0.000,0
1644798605.646,-10.742,-484.375,-31.738,-5.859,0.000,0
1644798605.650,6.836,188.477,-28.809,10.742,0.000,0
1644798605.654,-3.418,272.461,-31.250,1.465,0.000,0
1644798605.658,-22.461,-496.582,-38.574,-7.324,0.000,0
1644798605.661,-25.391,-905.273,-38.086,-11.230,0.000,0
1644798605.665,-16.602,-429.688,-34.668,-29.297,0.000,0
1644798605.669,-8.789,25.391,-36.133,-18.066,0.000,0
1644798605.673,-9.766,-17.090,-40.039,-7.812,0.000,0
1644798605.677,-24.414,-292.480,-41.992,-8.789,0.000,0
1644798605.681,-34.668,-395.020,-39.062,-16.113,0.000,0
1644798605.685,-13.184,-270.020,-33.691,-16.113,0.000,0
1644798605.689,2.441,-66.406,-32.227,6.348,0.000,0
1644798605.693,-3.418,110.840,-33.203,10.254,0.000,0
1644798605.697,-24.414,117.188,-35.645,-6.836,0.000,0
1644798605.701,-33.691,-350.098,-35.156,-17.090,0.000,0
1644798605.704,-11.230,-615.723,-36.621,-20.996,0.000,0
1644798605.708,0.977,-284.668,-41.504,-9.766,0.000,0
1644798605.712,-9.766,-7.812,-43.457,0.000,0.000,0
1644798605.716,-31.738,-276.367,-42.480,5.371,0.000,0
1644798605.720,-35.645,-758.789,-40.527,-5.859,0.000,0
1644798605.724,-31.250,-626.953,-36.133,-32.715,0.000,0
1644798605.728,-8.301,-50.293,-30.762,-35.156,0.000,0
1644798605.732,10.254,84.961,-28.809,-7.812,0.000,0
1644798605.736,-25.879,-182.617,-31.738,4.395,0.000,0
1644798605.740,-50.781,-380.859,-26.855,-9.277,0.000,0
1644798605.743,-37.109,-293.945,-24.902,-30.762,0.000,0
1644798605.747,-17.578,-73.730,-23.926,-31.738,0.000,0
1644798605.751,-16.602,-197.266,-25.391,-18.066,0.000,0
1644798605.755,-24.902,-199.707,-31.738,-13.672,0.000,0
1644798605.759,-44.922,-249.512,-36.621,-26.855,0.000,0
1644798605.763,-48.340,-775.879,-38.574,-33.203,0.000,0
1644798605.767,-29.297,-704.102,-32.715,-13.672,0.000,0
1644798605.770,-28.809,215.332,-29.297,-13.184,0.000,0
1644798605.774,-37.109,275.879,-29.297,-27.344,0.000,0
1644798605.779,-48.828,-397.949,-24.902,-25.879,0.000,0
1644798605.783,-49.805,-672.852,-32.227,-40.039,0.000,0
1644798605.787,-37.598,-191.895,-35.156,-43.945,0.000,0
1644798605.790,-21.973,263.184,-31.738,-24.414,0.000,0
1644798605.794,-23.926,41.992,-36.133,-20.508,0.000,1
1644798605.798,-44.922,-582.031,-38.086,-29.297,0.000,0
1644798605.802,-54.199,-862.793,-43.457,-41.504,0.000,0
1644798605.806,-30.762,-446.289,-39.062,-35.645,0.000,0
1644798605.810,-13.672,-523.926,-37.109,-9.277,0.000,0
1644798605.814,-34.668,-400.391,-41.504,-3.418,0.000,0
1644798605.817,-55.664,-70.312,-41.016,-33.203,0.000,0
1644798605.821,-44.434,-531.250,-41.992,-35.156,0.000,0
1644798605.826,-27.344,-398.438,-40.039,-28.320,0.000,0
1644798605.829,-30.762,229.492,-31.250,-20.020,0.000,0
1644798605.833,-36.621,375.000,-32.715,-29.785,0.000,0
1644798605.837,-43.457,-195.801,-43.457,-42.480,0.000,0
1644798605.841,-45.410,-792.480,-43.945,-45.898,0.000,0
1644798605.845,-28.320,-564.453,-41.016,-44.434,0.000,0
1644798605.849,-13.672,-146.973,-37.598,-24.902,0.000,0
1644798605.853,-16.602,-300.781,-36.621,-16.113,0.000,0
1644798605.856,-38.574,-535.156,-39.062,-25.879,0.000,0
1644798605.860,-54.199,-491.699,-37.598,-39.551,0.000,0
1644798605.864,-41.504,-141.113,-31.250,-37.598,0.000,0
1644798605.868,-18.066,-331.055,-28.809,-18.066,0.000,0
1644798605.872,-27.832,-582.031,-34.668,-10.254,0.000,0
1644798605.876,-55.664,-89.355,-40.527,-27.344,0.000,0
1644798605.880,-59.570,-391.602,-39.062,-39.551,0.000,0
1644798605.884,-46.387,-446.777,-34.668,-39.062,0.000,0
1644798605.888,-29.297,78.613,-29.297,-32.715,0.000,0
1644798605.892,-25.391,117.676,-25.391,-19.531,0.000,0
1644798605.895,-34.180,-298.340,-29.297,-17.090,0.000,0
1644798605.899,-38.086,-867.188,-31.738,-21.973,0.000,0
1644798605.903,-30.762,-755.859,-27.832,-24.414,0.000,0
1644798605.907,-22.949,100.586,-23.438,-22.461,0.000,0
1644798605.911,-20.508,293.945,-24.414,-16.602,0.000,0
1644798605.915,-30.273,-54.199,-29.785,-27.832,0.000,0
1644798605.919,-50.293,-433.594,-32.715,-24.414,0.000,0
1644798605.923,-46.875,-349.609,-35.645,-21.973,0.000,0
1644798605.927,-30.762,-39.551,-38.086,-22.949,0.000,0
1644798605.930,-28.320,136.719,-38.574,-21.973,0.000,0
1644798605.934,-31.250,132.812,-40.527,-24.414,0.000,0
1644798605.938,-41.992,-500.000,-41.504,-31.738,0.000,0
1644798605.942,-35.645,-931.152,-42.969,-43.945,0.000,0
1644798605.946,-23.926,-725.586,-41.992,-40.527,0.000,0
1644798605.950,-25.391,121.094,-39.062,-31.250,0.000,0
1644798605.954,-33.203,372.070,-42.480,-22.949,0.000,0
1644798605.958,-45.898,-407.227,-44.922,-22.949,0.000,0
1644798605.961,-49.805,-741.211,-44.434,-33.691,0.000,0
1644798605.965,-41.504,-44.434,-38.086,-24.902,0.000,0
1644798605.969,-35.156,348.145,-36.133,-12.207,0.000,0
1644798605.973,-41.016,86.914,-38.086,-16.113,0.000,0
1644798605.977,-49.805,-303.711,-33.691,-20.996,0.000,0
1644798605.981,-49.316,-464.844,-29.297,-28.320,0.000,0
1644798605.985,-43.945,-261.719,-27.344,-21.973,0.000,0
1644798605.989,-35.645,-537.598,-30.762,-9.277,0.000,0
1644798605.993,-41.504,-615.234,-27.832,-20.020,0.000,0
1644798605.996,-68.848,-211.426,-24.414,-40.527,0.000,0
1644798606.000,-76.172,-523.926,-27.344,-50.781,0.000,0
1644798606.004,-54.199,-426.758,-29.297,-56.152,0.000,0
1644798606.008,-45.410,208.008,-27.344,-41.992,0.000,0
1644798606.012,-56.641,435.059,-22.461,-34.668,0.000,0
1644798606.016,-72.754,-146.973,-25.879,-39.062,0.000,0
1644798606.020,-79.590,-712.891,-26.855,-44.922,0.000,0
1644798606.024,-52.246,-245.117,-20.020,-45.898,0.000,0
1644798606.028,-26.367,321.777,-21.973,-29.297,0.000,0
1644798606.032,-37.598,-119.141,-35.156,-15.625,0.000,0
1644798606.036,-58.105,-760.254,-44.434,-22.949,0.000,0
1644798606.039,-75.195,-582.520,-43.945,-58.105,0.000,0
1644798606.043,-62.012,-209.473,-39.551,-58.105,0.000,0
1644798606.047,-43.457,-78.613,-41.016,-40.039,0.000,0
1644798606.051,-39.062,63.965,-41.992,-35.645,0.000,0
1644798606.055,-44.922,89.355,-41.016,-25.879,0.000,0
1644798606.059,-68.359,-355.957,-40.039,-34.180,0.000,0
1644798606.063,-59.570,-500.488,-34.180,-52.246,0.000,0
1644798606.067,-32.227,-73.242,-31.250,-45.410,0.000,0
1644798606.071,-37.598,307.617,-34.180,-29.785,0.000,0
1644798606.075,-55.176,25.879,-36.133,-30.273,0.000,0
1644798606.078,-70.801,-705.566,-34.668,-33.691,0.000,0
1644798606.082,-63.965,-829.102,-31.738,-36.133,0.000,0
1644798606.086,-33.691,-352.539,-25.391,-26.855,0.000,0
1644798606.090,-23.926,-51.758,-23.926,-10.254,0.000,0
1644798606.094,-33.691,-549.805,-33.203,-10.254,0.000,0
1644798606.098,-48.828,-861.816,-34.180,-35.645,0.000,0
1644798606.102,-56.152,-325.684,-28.320,-54.688,0.000,0
1644798606.106,-36.621,-71.777,-28.809,-36.133,0.000,0
1644798606.110,-20.996,69.336,-31.738,-22.461,0.000,0
1644798606.114,-32.715,149.414,-31.250,-35.645,0.000,0
1644798606.118,-51.758,-163.574,-36.133,-32.227,0.000,0
1644798606.121,-48.828,-546.387,-35.156,-41.504,0.000,0
1644798606.125,-28.320,-520.020,-28.809,-44.922,0.000,0
1644798606.129,-22.461,-99.609,-28.320,-23.438,0.000,0
1644798606.133,-35.645,71.777,-26.855,-19.043,0.000,0
1644798606.137,-52.246,-563.477,-34.180,-19.531,0.000,0
1644798606.141,-49.805,-905.762,-36.621,-24.414,0.000,0
1644798606.145,-30.762,-150.391,-31.738,-29.785,0.000,0
1644798606.148,-21.973,360.840,-33.203,-24.414,0.000,0
1644798606.153,-26.367,94.238,-34.180,-18.555,0.000,0
1644798606.157,-38.086,-285.156,-37.598,-19.043,0.000,0
1644798606.161,-48.340,-336.426,-36.133,-31.738,0.000,0
1644798606.165,-31.738,-65.918,-29.785,-30.273,0.000,0
1644798606.168,-19.043,94.727,-32.227,-14.160,0.000,0
1644798606.172,-30.762,-86.426,-34.668,-12.695,0.000,0
1644798606.176,-51.270,-446.289,-37.598,-15.137,0.000,0
1644798606.180,-59.082,-680.664,-38.086,-27.344,0.000,0
1644798606.184,-38.574,-903.809,-32.715,-33.691,0.000,0
1644798606.188,-26.367,-505.859,-29.297,-18.555,0.000,0
1644798606.192,-29.297,209.473,-32.227,-11.719,0.000,0
1644798606.195,-38.086,-293.457,-35.645,-16.113,0.000,0
1644798606.200,-47.852,-706.543,-33.691,-34.668,0.000,0
1644798606.204,-44.434,-228.027,-30.762,-38.574,0.000,0
1644798606.207,-22.461,299.316,-29.785,-37.598,0.000,0
1644798606.211,-18.066,177.734,-35.645,-40.039,0.000,0
1644798606.215,-42.969,-228.027,-38.574,-35.645,0.000,0
1644798606.219,-58.594,-649.902,-36.133,-47.852,0.000,0
1644798606.223,-51.758,-533.691,-32.227,-47.852,0.000,0
1644798606.227,-26.855,-209.473,-28.320,-28.320,0.000,0
1644798606.231,-24.902,-135.254,-30.762,-28.809,0.000,0
1644798606.234,-41.016,23.438,-34.180,-23.438,0.000,0
1644798606.238,-54.199,-216.309,-35.645,-34.180,0.000,0
1644798606.242,-45.410,-756.348,-32.227,-27.832,0.000,0
1644798606.246,-22.949,-661.133,-28.320,-1.465,0.000,0
1644798606.250,-26.855,167.480,-23.926,-20.020,0.000,0
1644798606.254,-37.598,-94.238,-26.855,-25.879,0.000,0
1644798606.258,-60.059,-666.504,-29.297,-18.555,0.000,0
1644798606.262,-59.570,-485.840,-23.926,-34.668,0.000,0
1644798606.266,-41.016,-154.297,-19.531,-42.480,0.000,0
1644798606.270,-36.621,-35.645,-21.973,-34.668,0.000,0
1644798606.273,-34.668,-526.855,-25.879,-8.301,0.000,0
1644798606.277,-53.223,-858.398,-26.367,-14.648,0.000,0
1644798606.281,-55.664,-350.586,-24.902,-50.293,0.000,0
1644798606.285,-26.367,-27.832,-24.414,-33.691,0.000,0
1644798606.289,-21.973,-91.309,-27.832,-7.812,0.000,0
1644798606.293,-43.457,14.160,-29.785,-17.090,0.000,0
1644798606.297,-55.664,-97.656,-30.762,-32.227,0.000,0
1644798606.301,-54.199,-502.930,-31.250,-45.898,0.000,0
1644798606.305,-29.785,-258.789,-29.785,-37.598,0.000,0
1644798606.309,-19.043,283.691,-30.273,-20.508,0.000,0
1644798606.312,-35.645,119.629,-30.762,-17.090,0.000,0
1644798606.316,-50.781,-577.637,-29.785,-10.254,0.000,0
1644798606.320,-53.711,-988.770,-30.273,-22.461,0.000,0
1644798606.324,-46.875,-296.875,-28.320,-40.527,0.000,0
1644798606.328,-44.434,355.469,-32.715,-25.879,0.000,0
1644798606.332,-50.781,80.078,-34.668,-24.414,0.000,0
1644798606.336,-68.359,-262.207,-32.715,-29.297,0.000,0
1644798606.340,-72.266,-443.359,-35.156,-33.203,0.000,0
