timestamps,TP9,AF7,AF8,TP10,Right AUX, Marker
1639023400.636,-13.184,-25.879,-37.598,90.820,0.000,0
1639023400.640,-204.590,-31.250,-41.992,51.270,0.000,0
1639023400.643,-234.375,-33.691,-51.270,-70.801,0.000,0
1639023400.647,-59.570,-31.250,-52.734,-114.258,0.000,0
1639023400.651,77.148,-26.367,-44.922,-19.531,0.000,0
1639023400.655,1.465,-15.137,-43.457,86.426,0.000,0
1639023400.659,-176.270,-13.184,-43.945,67.383,0.000,0
1639023400.663,-229.492,-23.926,-49.805,-43.945,0.000,0
1639023400.666,-71.777,-21.973,-46.875,-104.492,0.000,0
1639023400.670,84.961,-14.160,-39.551,-27.344,0.000,0
1639023400.674,34.180,-15.625,-39.551,81.055,0.000,0
1639023400.678,-147.949,-30.273,-49.805,90.820,0.000,0
1639023400.683,-226.074,-33.203,-58.105,-27.344,0.000,0
1639023400.687,-90.820,-17.578,-46.875,-109.375,0.000,0
1639023400.691,71.777,-17.090,-38.574,-45.410,0.000,0
1639023400.695,52.246,-21.973,-38.086,59.570,0.000,0
1639023400.698,-122.070,-25.879,-39.062,73.242,0.000,0
1639023400.702,-243.164,-32.227,-52.734,-16.113,0.000,0
1639023400.706,-134.277,-33.203,-55.176,-99.121,0.000,0
1639023400.710,56.641,-24.902,-45.898,-62.500,0.000,0
1639023400.714,70.312,-13.672,-33.691,64.453,0.000,0
1639023400.718,-98.633,-15.625,-32.715,95.215,0.000,0
1639023400.722,-225.586,-20.020,-41.016,0.977,0.000,0
1639023400.726,-133.301,-14.648,-36.621,-84.961,0.000,0
1639023400.734,54.199,-15.625,-35.645,-57.617,0.000,0
1639023400.738,88.379,-16.113,-38.086,51.758,0.000,0
1639023400.742,-80.078,-16.113,-35.645,97.168,0.000,0
1639023400.746,-226.074,-21.484,-36.621,15.137,0.000,0
1639023400.750,-161.133,-24.414,-43.457,-79.102,0.000,0
1639023400.754,19.043,-21.484,-43.457,-56.152,0.000,0
1639023400.758,84.961,-19.043,-39.551,69.824,0.000,0
1639023400.762,-63.965,-25.391,-42.480,126.953,0.000,0
1639023400.766,-222.168,-24.414,-45.410,31.738,0.000,0
1639023400.770,-176.270,-20.508,-49.805,-83.496,0.000,0
1639023400.774,13.184,-14.648,-45.410,-87.402,0.000,0
1639023400.778,99.609,-11.230,-44.434,27.832,0.000,0
1639023400.790,-22.949,-16.602,-50.781,104.980,0.000,0
1639023400.795,-190.430,-16.602,-52.734,44.922,0.000,0
1639023400.799,-185.547,-10.254,-49.805,-73.730,0.000,0
1639023400.803,-6.348,-6.836,-43.457,-85.938,0.000,0
1639023400.807,102.539,-10.254,-38.574,17.578,0.000,0
1639023400.811,3.906,-13.672,-38.086,101.074,0.000,0
1639023400.815,-183.105,-17.090,-45.898,53.711,0.000,0
1639023400.820,-201.172,-16.113,-48.828,-62.012,0.000,0
1639023400.824,-11.230,-13.184,-41.016,-96.680,0.000,0
1639023400.828,124.023,-7.812,-38.574,-4.395,0.000,0
1639023400.832,40.527,-1.953,-41.504,98.633,0.000,0
1639023400.836,-154.297,-7.812,-41.504,73.730,0.000,0
1639023400.851,-205.078,-16.602,-44.922,-47.852,0.000,0
1639023400.855,-34.180,-19.043,-48.828,-88.379,0.000,0
1639023400.860,106.445,-20.508,-46.875,-6.836,0.000,0
1639023400.864,46.387,-12.695,-45.410,78.613,0.000,0
1639023400.869,-145.020,-11.230,-40.527,71.777,0.000,0
1639023400.873,-210.938,-18.555,-37.109,-29.297,0.000,0
1639023400.877,-68.848,-20.508,-39.062,-96.191,0.000,0
1639023400.882,85.449,-13.184,-34.668,-42.480,0.000,0
1639023400.886,61.523,-9.766,-33.203,69.824,0.000,0
1639023400.890,-124.512,-16.113,-38.574,84.961,0.000,0
1639023400.895,-223.633,-22.461,-41.992,-16.113,0.000,0
1639023400.899,-93.750,-22.949,-39.551,-100.098,0.000,0
1639023400.916,82.031,-18.555,-40.039,-47.363,0.000,0
1639023400.920,71.289,-11.719,-34.668,73.242,0.000,0
1639023400.925,-109.375,-13.184,-32.715,81.543,0.000,0
1639023400.929,-225.586,-18.066,-41.504,-13.184,0.000,0
1639023400.934,-108.887,-18.066,-40.039,-89.355,0.000,0
1639023400.938,64.453,-17.090,-38.574,-55.176,0.000,0
1639023400.943,60.547,-18.066,-40.039,53.223,0.000,0
1639023400.947,-87.402,-23.926,-37.598,83.496,0.000,0
1639023400.952,-211.426,-31.250,-45.898,8.301,0.000,0
1639023400.956,-139.648,-38.574,-56.641,-81.543,0.000,0
1639023400.961,49.805,-27.832,-46.875,-80.078,0.000,0
1639023400.965,97.168,-13.184,-37.598,28.809,0.000,0
1639023400.983,-57.617,-14.160,-39.551,102.051,0.000,0
1639023400.988,-210.449,-20.508,-40.527,28.320,0.000,0
1639023400.992,-165.527,-22.949,-45.410,-72.754,0.000,0
1639023400.997,18.066,-23.438,-44.922,-60.547,0.000,0
1639023401.002,103.027,-18.555,-38.086,37.109,0.000,0
1639023401.006,-25.879,-19.531,-36.621,102.539,0.000,0
1639023401.011,-199.219,-24.414,-40.527,49.316,0.000,0
1639023401.016,-182.617,-22.949,-43.457,-63.965,0.000,0
1639023401.020,4.395,-21.973,-44.922,-83.008,0.000,0
1639023401.025,100.586,-21.973,-41.992,4.883,0.000,0
1639023401.030,-14.160,-14.648,-33.203,94.238,0.000,0
1639023401.034,-189.453,-16.113,-31.250,56.152,0.000,0
1639023401.052,-211.426,-23.438,-35.156,-66.895,0.000,0
1639023401.057,-30.762,-16.113,-33.691,-97.656,0.000,0
1639023401.062,105.469,-6.836,-28.320,4.883,0.000,0
1639023401.067,17.090,-13.184,-22.949,101.074,0.000,0
1639023401.072,-166.504,-25.879,-27.344,87.891,0.000,0
1639023401.076,-210.449,-24.902,-34.668,-28.320,0.000,0
1639023401.081,-45.898,-22.949,-40.039,-97.656,0.000,0
1639023401.086,103.516,-26.855,-32.715,-23.438,0.000,0
1639023401.091,27.832,-20.020,-23.926,77.637,0.000,0
1639023401.096,-165.039,-13.184,-28.809,74.219,0.000,0
1639023401.100,-224.609,-18.555,-34.180,-37.109,0.000,0
1639023401.105,-78.613,-29.785,-37.109,-105.957,0.000,0
1639023401.116,82.031,-31.250,-38.086,-31.250,0.000,0
1639023401.121,48.340,-22.461,-29.297,82.520,0.000,0
1639023401.125,-132.324,-24.902,-25.879,85.449,0.000,0
1639023401.130,-226.562,-25.879,-34.180,-25.391,0.000,0
1639023401.135,-90.820,-22.461,-36.621,-80.566,0.000,0
1639023401.140,85.449,-19.043,-33.203,-6.836,0.000,0
1639023401.145,67.871,-16.113,-35.156,74.219,0.000,0
1639023401.150,-108.887,-14.648,-34.668,89.844,0.000,0
1639023401.155,-220.215,-17.090,-36.133,-2.930,0.000,0
1639023401.160,-113.770,-17.578,-38.574,-97.656,0.000,0
1639023401.164,52.734,-12.695,-36.133,-67.383,0.000,0
1639023401.169,79.102,-19.043,-38.574,65.430,0.000,0
1639023401.173,-90.820,-18.066,-38.086,107.422,0.000,0
1639023401.178,-236.816,-9.277,-40.039,0.488,0.000,0
1639023401.183,-146.973,-8.789,-42.969,-85.449,0.000,0
1639023401.188,48.828,-8.789,-37.598,-55.664,0.000,0
1639023401.193,83.984,-18.066,-33.691,53.223,0.000,0
1639023401.197,-71.289,-20.996,-37.598,103.027,0.000,0
1639023401.202,-221.191,-22.949,-43.457,17.578,0.000,0
1639023401.207,-162.598,-28.320,-44.434,-90.820,0.000,0
1639023401.212,20.996,-25.391,-43.457,-83.496,0.000,0
1639023401.217,93.262,-20.020,-36.621,28.320,0.000,0
1639023401.222,-32.715,-16.113,-34.180,100.586,0.000,0
1639023401.227,-204.590,-22.949,-41.016,33.203,0.000,0
1639023401.226,-175.781,-24.902,-44.922,-72.754,0.000,0
1639023401.230,11.719,-17.578,-44.434,-73.242,0.000,0
1639023401.235,97.168,-20.508,-40.527,26.855,0.000,0
1639023401.240,-23.926,-25.879,-39.062,107.910,0.000,0
1639023401.245,-206.055,-29.297,-41.504,48.828,0.000,0
1639023401.250,-214.844,-31.250,-46.875,-71.289,0.000,0
1639023401.254,-25.391,-27.832,-46.875,-67.383,0.000,0
1639023401.259,99.609,-21.973,-43.945,21.484,0.000,0
1639023401.264,-5.371,-16.113,-41.504,79.590,0.000,0
1639023401.269,-194.824,-17.578,-48.340,55.176,0.000,0
1639023401.274,-221.680,-19.531,-46.387,-44.434,0.000,0
1639023401.279,-55.664,-14.648,-41.992,-95.703,0.000,0
1639023401.273,80.566,-16.602,-43.945,-27.344,0.000,0
1639023401.278,16.113,-18.066,-42.480,81.055,0.000,0
1639023401.283,-163.086,-17.578,-37.598,75.684,0.000,0
1639023401.288,-229.980,-23.438,-40.527,-31.250,0.000,0
1639023401.292,-87.891,-18.555,-42.480,-79.590,0.000,0
1639023401.297,84.473,-15.137,-38.086,-14.648,0.000,0
1639023401.302,48.828,-20.020,-38.574,81.055,0.000,0
1639023401.307,-141.602,-19.043,-40.039,81.543,0.000,0
1639023401.311,-219.238,-20.508,-40.527,-36.133,0.000,0
1639023401.316,-91.309,-19.531,-41.992,-100.586,0.000,0
1639023401.321,69.336,-18.066,-39.551,-37.598,0.000,0
1639023401.326,56.152,-19.531,-35.645,63.477,0.000,0
1639023401.317,-121.094,-17.578,-31.738,79.102,0.000,0
1639023401.322,-228.027,-24.902,-41.016,-4.883,0.000,0
1639023401.326,-124.023,-37.598,-52.246,-69.824,0.000,0
1639023401.331,41.504,-28.809,-42.480,-39.062,0.000,0
1639023401.336,60.059,-21.484,-39.062,62.988,0.000,0
1639023401.340,-98.145,-25.879,-42.480,95.215,0.000,0
1639023401.345,-232.422,-28.809,-41.992,0.488,0.000,0
1639023401.350,-143.555,-28.809,-44.922,-103.027,0.000,0
1639023401.354,40.527,-21.484,-37.598,-70.312,0.000,0
1639023401.359,76.660,-19.531,-35.645,43.945,0.000,0
1639023401.364,-73.242,-25.391,-39.062,93.750,0.000,0
1639023401.368,-224.609,-24.414,-38.574,16.602,0.000,0
1639023401.357,-170.898,-30.273,-46.387,-87.891,0.000,0
1639023401.362,17.090,-29.297,-50.293,-73.242,0.000,0
1639023401.366,94.238,-18.555,-39.551,40.039,0.000,0
1639023401.371,-53.711,-19.043,-31.738,100.586,0.000,0
1639023401.375,-208.008,-27.832,-31.738,22.461,0.000,0
1639023401.380,-154.297,-36.621,-37.598,-92.773,0.000,0
1639023401.385,11.230,-35.156,-34.668,-82.031,0.000,0
1639023401.389,97.168,-30.762,-27.344,21.484,0.000,0
1639023401.394,-22.949,-30.273,-26.367,97.168,0.000,0
1639023401.398,-203.125,-37.598,-36.621,51.270,0.000,0
1639023401.403,-213.379,-40.039,-42.480,-73.730,0.000,0
1639023401.407,-31.738,-29.785,-37.598,-100.098,0.000,0
1639023401.394,91.309,-28.809,-37.598,4.883,0.000,0
1639023401.399,-6.348,-38.086,-41.992,105.469,0.000,0
1639023401.403,-187.012,-33.691,-41.504,49.805,0.000,0
1639023401.408,-209.473,-26.367,-43.945,-80.566,0.000,0
1639023401.412,-48.828,-30.762,-48.340,-104.980,0.000,0
1639023401.417,84.473,-33.203,-45.898,-19.531,0.000,0
1639023401.421,12.207,-25.879,-38.086,63.477,0.000,0
1639023401.425,-172.852,-24.902,-38.086,37.598,0.000,0
1639023401.430,-222.168,-34.180,-49.805,-51.270,0.000,0
1639023401.434,-78.613,-35.645,-51.758,-100.586,0.000,0
1639023401.439,67.383,-25.879,-41.504,-51.270,0.000,0
1639023401.443,29.785,-22.949,-35.156,64.453,0.000,0
1639023401.430,-153.809,-29.785,-41.992,86.914,0.000,0
1639023401.434,-237.305,-35.645,-52.734,-27.832,0.000,0
1639023401.439,-105.469,-28.320,-49.805,-112.793,0.000,0
1639023401.443,75.684,-22.461,-41.992,-41.504,0.000,0
1639023401.448,66.406,-30.273,-38.574,84.961,0.000,0
1639023401.452,-131.348,-32.227,-45.410,88.867,0.000,1
1639023401.456,-235.840,-26.367,-46.875,-30.762,0.000,0
1639023401.461,-111.816,-26.367,-46.875,-101.562,0.000,0
1639023401.465,57.129,-26.855,-50.293,-46.387,0.000,0
1639023401.469,54.688,-24.414,-37.109,47.852,0.000,0
1639023401.474,-117.676,-22.461,-33.203,65.918,0.000,0
1639023401.478,-228.516,-30.273,-41.016,0.977,0.000,0
1639023401.466,-139.160,-41.016,-44.434,-84.961,0.000,0
1639023401.471,33.203,-32.715,-41.016,-78.125,0.000,0
1639023401.475,70.801,-23.438,-32.715,47.363,0.000,0
1639023401.479,-82.520,-31.250,-30.762,104.004,0.000,0
1639023401.484,-217.285,-36.133,-37.598,12.695,0.000,0
1639023401.488,-160.156,-31.250,-43.457,-89.844,0.000,0
1639023401.492,18.555,-28.320,-43.457,-82.520,0.000,0
1639023401.496,86.914,-31.738,-41.504,36.133,0.000,0
1639023401.501,-52.734,-35.645,-39.551,99.609,0.000,0
1639023401.505,-216.309,-34.180,-43.945,13.184,0.000,0
1639023401.509,-173.340,-35.645,-46.387,-89.355,0.000,0
1639023401.514,7.812,-36.621,-42.969,-87.402,0.000,0
1639023401.503,84.961,-34.180,-41.016,9.277,0.000,0
1639023401.508,-39.551,-31.738,-41.504,82.520,0.000,0
1639023401.512,-205.566,-38.574,-48.340,26.855,0.000,0
1639023401.516,-195.801,-41.016,-52.246,-79.102,0.000,0
1639023401.520,-17.090,-37.109,-42.480,-92.773,0.000,0
1639023401.524,91.309,-31.738,-35.156,8.301,0.000,0
1639023401.529,-14.648,-32.227,-41.016,94.238,0.000,0
1639023401.533,-178.223,-39.551,-44.434,60.547,0.000,0
1639023401.537,-204.590,-35.645,-40.527,-67.383,0.000,0
1639023401.541,-50.781,-30.273,-38.574,-118.652,0.000,0
1639023401.546,95.703,-32.715,-36.621,-15.137,0.000,0
1639023401.550,19.531,-29.297,-36.133,92.285,0.000,0
1639023401.541,-162.598,-29.785,-41.016,67.383,0.000,0
1639023401.545,-208.984,-37.598,-48.828,-32.715,0.000,0
1639023401.549,-56.152,-35.156,-49.316,-86.426,0.000,0
1639023401.553,90.820,-27.832,-40.039,-15.625,0.000,0
1639023401.557,25.879,-24.414,-39.551,78.125,0.000,0
1639023401.562,-159.180,-28.320,-42.969,75.684,0.000,0
1639023401.566,-217.773,-35.645,-47.852,-0.977,0.000,0
1639023401.570,-83.984,-38.574,-48.828,-77.637,0.000,0
1639023401.574,66.406,-30.273,-40.527,-39.062,0.000,0
1639023401.578,43.945,-24.902,-36.621,78.613,0.000,0
1639023401.582,-132.812,-25.879,-37.109,95.215,0.000,0
1639023401.587,-222.656,-31.738,-41.016,-7.324,0.000,0
1639023401.579,-110.352,-33.691,-41.504,-98.145,0.000,0
1639023401.583,63.965,-33.691,-37.598,-53.711,0.000,0
1639023401.587,80.566,-29.785,-31.738,68.848,0.000,0
1639023401.591,-104.980,-33.691,-37.598,100.586,0.000,0
1639023401.595,-231.445,-48.828,-50.293,4.395,0.000,0
1639023401.599,-129.883,-51.758,-56.641,-94.727,0.000,0
1639023401.603,53.223,-48.828,-58.105,-59.082,0.000,0
1639023401.607,77.637,-42.969,-45.898,43.457,0.000,0
1639023401.612,-86.426,-35.156,-38.574,73.730,0.000,0
1639023401.616,-229.980,-38.086,-47.363,4.395,0.000,0
1639023401.620,-165.527,-47.852,-49.805,-95.703,0.000,0
1639023401.624,15.137,-45.410,-44.922,-91.797,0.000,0
1639023401.618,80.566,-36.133,-36.621,36.133,0.000,0
1639023401.622,-59.570,-34.668,-35.156,107.910,0.000,0
1639023401.627,-216.797,-35.156,-35.645,33.691,0.000,0
1639023401.631,-165.039,-34.668,-37.598,-86.914,0.000,0
1639023401.635,17.578,-35.645,-41.992,-78.125,0.000,0
1639023401.639,106.934,-34.180,-39.062,49.805,0.000,0
1639023401.643,-6.348,-35.156,-41.504,108.398,0.000,0
1639023401.647,-193.359,-38.086,-48.340,41.504,0.000,0
1639023401.651,-200.684,-41.016,-48.828,-68.359,0.000,0
1639023401.655,-19.043,-41.016,-46.387,-85.938,0.000,0
1639023401.659,85.449,-35.156,-41.992,10.254,0.000,0
1639023401.663,-18.555,-35.645,-41.992,76.660,0.000,0
1639023401.658,-186.035,-35.156,-43.945,27.344,0.000,0
1639023401.662,-202.148,-31.250,-46.875,-72.754,0.000,0
1639023401.667,-28.320,-33.691,-44.922,-109.863,0.000,0
1639023401.671,95.703,-33.691,-42.480,-15.137,0.000,0
1639023401.675,8.789,-33.203,-41.504,79.590,0.000,0
1639023401.679,-165.039,-30.762,-41.504,56.641,0.000,0
1639023401.683,-215.820,-33.203,-48.340,-49.316,0.000,0
1639023401.687,-61.035,-34.668,-46.875,-104.492,0.000,0
1639023401.691,88.867,-29.297,-39.551,-30.762,0.000,0
1639023401.695,35.645,-25.879,-36.621,83.496,0.000,0
1639023401.699,-149.902,-26.367,-38.574,77.148,0.000,0
1639023401.703,-230.469,-30.273,-44.922,-43.945,0.000,0
1639023401.699,-88.379,-35.156,-44.434,-100.586,0.000,0
1639023401.703,83.496,-31.250,-37.598,-30.273,0.000,0
1639023401.707,66.895,-23.926,-34.668,72.266,0.000,0
1639023401.711,-110.352,-25.391,-32.715,82.520,0.000,0
1639023401.715,-212.891,-33.691,-36.133,-21.484,0.000,0
1639023401.719,-93.262,-34.668,-44.434,-111.328,0.000,0
1639023401.723,75.195,-29.785,-44.922,-64.453,0.000,0
1639023401.727,64.941,-27.832,-37.109,52.734,0.000,0
1639023401.731,-97.168,-34.180,-38.086,92.285,0.000,0
1639023401.735,-207.520,-35.645,-41.016,-5.371,0.000,0
1639023401.739,-115.723,-25.879,-32.227,-109.863,0.000,0
1639023401.743,56.641,-22.461,-33.203,-67.383,0.000,0
1639023401.739,75.195,-20.996,-38.574,55.176,0.000,0
1639023401.743,-80.078,-20.020,-37.109,93.262,0.000,0
1639023401.747,-211.914,-26.855,-40.039,5.371,0.000,0
1639023401.751,-135.742,-27.344,-37.109,-92.773,0.000,0
1639023401.755,35.645,-32.715,-38.574,-75.195,0.000,0
1639023401.759,89.844,-35.645,-41.992,35.156,0.000,0
1639023401.763,-44.922,-32.227,-39.062,86.426,0.000,0
1639023401.767,-198.730,-36.133,-43.945,22.949,0.000,0
1639023401.771,-156.738,-38.574,-46.875,-73.730,0.000,0
1639023401.775,28.809,-34.180,-43.945,-93.750,0.000,0
1639023401.779,104.980,-26.367,-39.062,3.418,0.000,0
1639023401.783,-39.551,-23.926,-41.016,76.660,0.000,0
1639023401.780,-207.031,-29.785,-40.039,20.996,0.000,0
1639023401.784,-183.594,-31.738,-32.715,-82.031,0.000,0
1639023401.788,-11.230,-30.273,-35.645,-96.680,0.000,0
1639023401.792,88.867,-29.785,-38.086,18.555,0.000,0
1639023401.796,-8.789,-26.855,-33.691,108.887,0.000,0
1639023401.800,-176.758,-26.367,-35.156,57.129,0.000,0
1639023401.804,-191.895,-27.344,-42.969,-59.082,0.000,0
1639023401.808,-21.484,-34.668,-46.875,-77.637,0.000,0
1639023401.812,105.469,-31.738,-38.086,7.324,0.000,0
1639023401.816,8.789,-17.090,-31.250,73.242,0.000,0
1639023401.820,-172.852,-20.020,-37.598,58.105,0.000,0
1639023401.824,-203.613,-30.762,-44.434,-40.527,0.000,0
1639023401.822,-41.016,-28.809,-41.504,-90.820,0.000,0
1639023401.826,91.797,-20.020,-33.203,-18.555,0.000,0
1639023401.830,25.391,-19.531,-33.691,77.148,0.000,0
1639023401.833,-152.832,-21.484,-39.062,61.523,0.000,0
1639023401.837,-214.844,-24.414,-41.504,-46.875,0.000,0
1639023401.841,-75.195,-26.367,-41.016,-98.633,0.000,0
1639023401.845,80.566,-23.926,-36.621,-20.996,0.000,0
1639023401.849,47.363,-24.902,-38.574,96.191,0.000,0
1639023401.853,-142.578,-24.902,-38.086,92.773,0.000,0
1639023401.857,-229.004,-20.508,-36.133,-21.484,0.000,0
1639023401.861,-101.562,-20.996,-41.504,-100.586,0.000,0
1639023401.865,71.289,-23.926,-41.504,-54.199,0.000,0
1639023401.863,67.871,-18.555,-31.738,46.875,0.000,0
1639023401.867,-110.840,-18.555,-32.715,80.078,0.000,0
1639023401.871,-218.750,-28.809,-44.434,-8.789,0.000,0
1639023401.875,-118.652,-28.320,-42.969,-97.656,0.000,0
1639023401.879,60.059,-19.043,-39.551,-50.781,0.000,0
1639023401.883,80.078,-19.531,-38.574,59.570,0.000,0
1639023401.887,-75.684,-30.273,-40.527,104.004,0.000,0
1639023401.891,-210.449,-27.832,-42.480,15.625,0.000,0
1639023401.895,-145.020,-20.020,-35.645,-106.445,0.000,0
1639023401.898,34.180,-25.391,-34.668,-75.684,0.000,0
1639023401.902,85.449,-22.949,-33.203,47.852,0.000,0
1639023401.906,-57.129,-20.996,-27.832,87.402,0.000,0
1639023401.905,-200.684,-18.555,-33.691,11.719,0.000,0
1639023401.908,-151.855,-20.996,-42.480,-81.055,0.000,0
1639023401.912,28.809,-24.414,-42.969,-72.266,0.000,0
1639023401.916,101.074,-16.113,-29.785,33.691,0.000,0
1639023401.920,-51.270,-19.043,-33.691,99.609,0.000,0
1639023401.924,-207.520,-23.926,-44.922,42.480,0.000,0
1639023401.928,-165.039,-24.902,-45.410,-58.594,0.000,0
1639023401.932,-2.441,-20.020,-45.898,-83.496,0.000,0
1639023401.936,89.355,-13.184,-36.133,-3.418,0.000,0
1639023401.940,-18.555,-16.113,-29.297,89.355,0.000,0
1639023401.944,-191.895,-21.484,-33.203,43.457,0.000,0
1639023401.948,-199.707,-24.902,-39.062,-79.102,0.000,0
1639023401.948,-30.273,-28.320,-38.086,-103.516,0.000,0
1639023401.951,89.355,-31.250,-39.062,-4.395,0.000,0
1639023401.955,-2.930,-29.297,-43.945,85.938,0.000,0
1639023401.959,-189.453,-30.273,-48.340,57.617,0.000,0
1639023401.963,-211.426,-35.645,-54.199,-69.336,0.000,0
1639023401.967,-37.109,-35.645,-55.176,-115.234,0.000,0
1639023401.971,85.449,-31.738,-45.410,-19.043,0.000,0
1639023401.975,14.648,-29.297,-37.598,66.406,0.000,0
1639023401.979,-164.551,-29.297,-38.574,55.176,0.000,0
1639023401.983,-221.191,-33.691,-45.410,-34.668,0.000,0
1639023401.987,-71.289,-36.133,-49.316,-96.191,0.000,0
1639023401.990,73.730,-29.297,-39.551,-48.340,0.000,0
1639023401.991,27.832,-29.297,-38.086,61.523,0.000,0
1639023401.995,-156.738,-31.738,-45.410,65.918,0.000,0
1639023401.998,-239.258,-35.156,-52.734,-51.270,0.000,0
1639023402.002,-102.051,-46.387,-55.664,-123.047,0.000,0
1639023402.006,68.848,-53.223,-53.223,-62.988,0.000,0
1639023402.010,52.734,-57.129,-49.805,55.176,0.000,0
1639023402.014,-130.371,-64.941,-49.805,72.266,0.000,0
1639023402.018,-246.094,-72.266,-54.688,-38.086,0.000,0
1639023402.022,-133.301,-71.777,-55.176,-116.211,0.000,0
1639023402.026,45.410,-70.801,-50.781,-57.617,0.000,0
1639023402.030,52.734,-68.848,-40.527,43.945,0.000,0
1639023402.033,-103.516,-69.336,-38.086,75.684,0.000,0
1639023402.034,-224.121,-77.148,-53.711,-9.277,0.000,0
1639023402.038,-141.113,-80.078,-54.199,-106.934,0.000,0
1639023402.042,31.250,-71.289,-41.504,-81.543,0.000,0
1639023402.045,73.730,-59.570,-34.668,39.551,0.000,0
1639023402.049,-66.895,-59.570,-40.039,94.727,0.000,0
1639023402.053,-221.680,-70.312,-48.340,11.230,0.000,0
1639023402.057,-166.992,-70.801,-53.711,-93.262,0.000,0
1639023402.061,16.113,-62.988,-44.922,-82.520,0.000,0
1639023402.065,91.797,-68.848,-39.062,39.551,0.000,0
1639023402.069,-47.363,-73.242,-47.852,95.215,0.000,0
1639023402.073,-217.773,-67.871,-47.363,7.812,0.000,0
1639023402.076,-180.176,-69.824,-46.875,-85.449,0.000,0
1639023402.077,-4.883,-70.801,-44.922,-85.938,0.000,0
1639023402.081,84.961,-66.895,-38.086,4.883,0.000,0
1639023402.085,-27.344,-63.965,-38.574,70.312,0.000,0
1639023402.089,-205.566,-69.824,-44.922,21.484,0.000,0
1639023402.093,-183.105,-77.637,-48.340,-78.125,0.000,0
1639023402.096,2.441,-70.801,-46.875,-81.055,0.000,0
1639023402.100,89.844,-66.895,-45.898,4.395,0.000,0
1639023402.104,-1.465,-71.289,-44.434,82.031,0.000,0
1639023402.108,-170.410,-76.172,-41.016,46.875,0.000,0
1639023402.112,-205.078,-69.336,-38.574,-68.848,0.000,0
1639023402.116,-38.086,-64.941,-39.551,-103.027,0.000,0
1639023402.120,103.516,-60.059,-40.039,-17.090,0.000,0
1639023402.120,18.555,-53.711,-36.621,80.078,0.000,0
1639023402.124,-167.969,-52.246,-35.645,49.805,0.000,0
1639023402.128,-218.262,-51.758,-40.039,-62.988,0.000,0
1639023402.132,-61.523,-56.641,-47.852,-100.098,0.000,0
1639023402.136,86.426,-59.082,-46.387,-27.344,0.000,0
1639023402.140,38.086,-54.688,-41.504,69.336,0.000,0
1639023402.144,-135.742,-51.758,-41.992,60.547,0.000,0
1639023402.147,-205.566,-54.199,-43.457,-22.461,0.000,0
1639023402.151,-68.848,-51.758,-43.457,-80.078,0.000,0
1639023402.155,74.219,-43.945,-34.668,-49.316,0.000,0
1639023402.159,44.922,-45.410,-39.551,51.758,0.000,0
1639023402.163,-126.465,-47.852,-49.805,73.730,0.000,0
1639023402.164,-218.750,-49.805,-42.969,-22.949,0.000,0
1639023402.168,-105.957,-52.246,-46.387,-104.492,0.000,0
1639023402.172,54.688,-47.852,-46.875,-55.176,0.000,0
1639023402.175,55.176,-37.109,-40.527,55.664,0.000,0
1639023402.179,-107.422,-30.762,-39.062,80.078,0.000,0
1639023402.183,-212.891,-32.715,-41.504,-9.277,0.000,0
1639023402.187,-121.094,-35.156,-49.316,-92.285,0.000,0
1639023402.191,56.641,-30.762,-50.781,-52.246,0.000,0
1639023402.195,87.402,-19.531,-46.387,43.457,0.000,0
1639023402.199,-77.148,-16.113,-42.969,79.590,0.000,0
1639023402.202,-206.055,-21.973,-45.410,16.113,0.000,0
1639023402.206,-143.066,-20.996,-43.945,-84.961,0.000,0
1639023402.207,25.879,-8.301,-38.086,-80.078,0.000,0
1639023402.211,83.496,-5.371,-30.273,36.621,0.000,0
1639023402.215,-53.711,-10.254,-29.297,101.074,0.000,0
1639023402.219,-213.867,-13.672,-39.551,21.973,0.000,0
1639023402.223,-179.688,-17.090,-47.852,-93.750,0.000,0
1639023402.227,9.277,-18.066,-41.504,-78.125,0.000,0
1639023402.230,97.656,-15.625,-37.109,48.340,0.000,0
1639023402.234,-27.344,-12.695,-34.668,101.562,0.000,0
1639023402.238,-199.219,-7.324,-32.715,29.297,0.000,0
1639023402.242,-186.523,-13.184,-36.133,-68.848,0.000,0
1639023402.246,-9.766,-16.113,-36.133,-87.891,0.000,0
1639023402.250,93.262,-10.254,-35.645,7.324,0.000,0
1639023402.251,-10.742,-6.348,-32.227,84.473,0.000,0
1639023402.255,-185.059,-13.184,-38.086,49.316,0.000,0
1639023402.258,-204.102,-16.113,-47.852,-58.594,0.000,0
1639023402.262,-38.086,-8.789,-52.734,-109.863,0.000,0
1639023402.266,95.703,-0.488,-44.922,-19.043,0.000,0
1639023402.270,15.625,-5.371,-38.574,91.797,0.000,0
1639023402.274,-176.270,-16.113,-47.852,62.988,0.000,0
1639023402.278,-223.145,-20.020,-50.781,-56.152,0.000,0
1639023402.282,-52.246,-20.020,-41.992,-112.793,0.000,0
1639023402.285,95.215,-15.625,-37.598,-28.320,0.000,0
1639023402.289,22.949,-14.648,-36.133,85.938,0.000,0
1639023402.293,-150.879,-14.160,-36.621,71.777,0.000,0
1639023402.295,-217.285,-17.090,-48.828,-37.109,0.000,0
1639023402.299,-86.914,-23.438,-56.152,-102.539,0.000,1
1639023402.303,71.289,-14.160,-47.363,-36.133,0.000,0
1639023402.307,48.340,-6.836,-40.039,64.453,0.000,0
1639023402.311,-130.371,-12.207,-43.945,66.406,0.000,0
1639023402.315,-218.750,-20.020,-49.316,-30.273,0.000,0
1639023402.318,-88.867,-17.090,-45.898,-104.004,0.000,0
1639023402.322,83.496,-5.371,-37.598,-53.711,0.000,0
1639023402.326,78.125,-1.953,-36.621,62.988,0.000,0
1639023402.330,-99.121,-8.789,-41.016,98.633,0.000,0
1639023402.334,-224.121,-18.555,-50.781,7.812,0.000,0
1639023402.338,-131.348,-13.184,-46.387,-93.262,0.000,0
1639023402.340,57.617,-9.277,-39.062,-57.617,0.000,0
1639023402.344,84.473,-10.254,-34.668,63.965,0.000,0
1639023402.348,-77.637,-13.184,-36.621,102.051,0.000,0
1639023402.352,-213.379,-16.602,-48.340,10.254,0.000,0
1639023402.355,-131.836,-16.602,-48.828,-83.496,0.000,0
1639023402.359,51.270,-15.137,-41.504,-60.547,0.000,0
1639023402.363,99.609,-12.207,-30.762,47.363,0.000,0
1639023402.367,-44.434,-11.719,-33.691,101.074,0.000,0
1639023402.371,-199.219,-17.090,-46.875,29.297,0.000,0
1639023402.375,-155.273,-20.508,-44.922,-81.543,0.000,0
1639023402.378,7.812,-16.602,-39.062,-98.633,0.000,0
1639023402.382,88.379,-11.230,-39.062,21.973,0.000,0
1639023402.385,-30.762,-14.160,-40.527,105.469,0.000,0
1639023402.388,-193.359,-20.020,-46.387,28.809,0.000,0
1639023402.392,-173.340,-20.508,-48.340,-89.844,0.000,0
1639023402.396,2.441,-19.531,-45.410,-106.445,0.000,0
1639023402.400,96.680,-19.043,-42.480,-1.953,0.000,0
1639023402.404,-8.301,-20.508,-42.969,86.914,0.000,0
1639023402.408,-187.012,-23.438,-43.945,35.156,0.000,0
1639023402.411,-213.379,-24.414,-41.016,-80.566,0.000,0
1639023402.415,-31.738,-29.297,-42.969,-84.473,0.000,0
1639023402.419,90.820,-27.344,-39.062,2.441,0.000,0
1639023402.423,-8.789,-23.438,-36.133,67.871,0.000,0
1639023402.427,-170.898,-29.785,-35.645,46.387,0.000,0
1639023402.429,-208.496,-34.180,-43.945,-60.059,0.000,0
1639023402.433,-60.059,-34.668,-54.688,-104.980,0.000,0
1639023402.437,85.449,-29.297,-48.828,-31.738,0.000,0
1639023402.441,31.738,-27.832,-43.945,76.660,0.000,0
1639023402.445,-150.879,-31.738,-48.340,71.289,0.000,0
1639023402.448,-221.680,-34.668,-56.152,-41.504,0.000,0
1639023402.452,-74.707,-31.250,-51.270,-94.727,0.000,0
1639023402.456,82.031,-24.902,-42.480,-29.785,0.000,0
1639023402.460,47.363,-33.203,-44.434,80.566,0.000,0
1639023402.464,-141.113,-35.645,-43.945,74.219,0.000,0
1639023402.468,-241.211,-33.203,-46.875,-35.645,0.000,0
1639023402.471,-102.539,-36.621,-47.852,-95.703,0.000,0
1639023402.474,69.824,-30.762,-38.086,-43.945,0.000,0
1639023402.478,60.059,-21.484,-31.738,64.941,0.000,0
1639023402.482,-111.328,-21.484,-33.203,82.520,0.000,0
1639023402.485,-229.492,-29.785,-38.086,-29.297,0.000,0
1639023402.489,-119.141,-30.273,-41.016,-109.863,0.000,0
1639023402.493,69.824,-31.250,-38.574,-56.152,0.000,0
1639023402.497,70.801,-32.227,-39.551,46.875,0.000,0
1639023402.501,-96.680,-34.668,-43.945,96.191,0.000,0
1639023402.505,-224.121,-34.668,-44.434,13.184,0.000,0
1639023402.508,-157.715,-29.297,-45.410,-116.211,0.000,0
1639023402.512,35.156,-27.832,-43.945,-89.844,0.000,0
1639023402.516,86.914,-25.391,-39.551,36.133,0.000,0
1639023402.519,-68.848,-23.438,-37.109,88.379,0.000,0
1639023402.522,-215.332,-22.461,-37.109,13.672,0.000,0
1639023402.526,-156.738,-27.344,-43.945,-95.703,0.000,0
1639023402.530,39.551,-26.367,-48.340,-92.285,0.000,0
1639023402.534,89.355,-25.879,-39.062,17.578,0.000,0
1639023402.538,-64.941,-27.832,-33.203,91.309,0.000,0
1639023402.542,-197.754,-33.203,-43.945,34.180,0.000,0
1639023402.545,-179.688,-39.551,-53.711,-69.336,0.000,0
1639023402.549,-3.418,-30.273,-43.457,-86.914,0.000,0
1639023402.553,95.703,-24.902,-34.668,10.254,0.000,0
1639023402.557,-27.832,-28.809,-37.109,100.098,0.000,0
1639023402.561,-192.871,-31.250,-37.598,53.711,0.000,0
1639023402.563,-191.406,-28.809,-40.527,-70.312,0.000,0
1639023402.567,-18.555,-22.949,-42.480,-95.215,0.000,0
1639023402.571,116.211,-16.602,-36.133,0.488,0.000,0
1639023402.575,25.879,-18.555,-31.738,87.891,0.000,0
1639023402.579,-164.062,-20.508,-33.203,63.477,0.000,0
1639023402.582,-186.523,-18.555,-37.598,-39.551,0.000,0
1639023402.586,-20.996,-24.414,-38.574,-76.172,0.000,0
1639023402.590,97.656,-23.438,-36.133,-1.465,0.000,0
1639023402.594,18.555,-10.742,-25.391,85.938,0.000,0
1639023402.598,-157.227,-15.137,-23.438,73.730,0.000,0
1639023402.601,-207.031,-22.949,-31.738,-43.945,0.000,0
1639023402.605,-63.965,-20.996,-36.621,-105.957,0.000,0
1639023402.608,85.938,-16.113,-31.250,-44.922,0.000,0
1639023402.612,55.176,-16.113,-29.785,62.500,0.000,0
1639023402.615,-120.117,-18.555,-32.227,57.617,0.000,0
1639023402.619,-204.102,-14.160,-29.785,-46.875,0.000,0
1639023402.623,-72.754,-16.602,-32.715,-104.980,0.000,0
1639023402.627,93.262,-20.996,-35.645,-29.297,0.000,0
1639023402.631,78.613,-18.066,-31.250,99.609,0.000,0
1639023402.635,-105.469,-17.578,-29.785,97.656,0.000,0
1639023402.638,-218.750,-16.113,-32.715,-13.672,0.000,0
1639023402.642,-96.680,-20.020,-33.691,-89.844,0.000,0
1639023402.646,81.055,-19.531,-31.250,-45.410,0.000,0
1639023402.650,93.750,-10.254,-33.203,65.430,0.000,0
1639023402.652,-82.520,-12.207,-38.086,86.426,0.000,0
1639023402.656,-215.332,-20.508,-49.316,-4.395,0.000,0
1639023402.660,-133.789,-22.949,-50.293,-94.238,0.000,0
1639023402.664,42.969,-20.020,-38.574,-66.895,0.000,0
1639023402.668,94.238,-20.020,-37.109,51.758,0.000,0
1639023402.672,-60.547,-25.879,-43.457,109.863,0.000,0
1639023402.675,-207.520,-31.250,-43.945,26.367,0.000,0
1639023402.679,-152.832,-29.785,-41.504,-80.078,0.000,0
1639023402.683,35.156,-24.414,-41.016,-75.684,0.000,0
1639023402.687,108.887,-22.949,-39.551,41.016,0.000,0
1639023402.691,-39.551,-21.484,-37.109,102.051,0.000,0
1639023402.694,-206.543,-19.043,-39.551,10.742,0.000,0
1639023402.698,-158.203,-12.207,-36.133,-87.891,0.000,0
1639023402.702,21.973,-8.789,-29.297,-83.008,0.000,0
1639023402.706,100.098,-11.719,-29.297,19.531,0.000,0
1639023402.709,-15.137,-13.672,-30.273,101.074,0.000,0
1639023402.713,-176.270,-20.508,-34.668,57.617,0.000,0
1639023402.717,-170.898,-24.902,-41.016,-62.500,0.000,0
1639023402.721,-3.418,-20.020,-43.457,-89.844,0.000,0
1639023402.725,113.770,-12.207,-34.180,22.949,0.000,0
1639023402.729,12.695,-12.207,-32.227,104.980,0.000,0
1639023402.732,-180.176,-18.066,-40.527,68.359,0.000,0
1639023402.736,-210.449,-21.484,-37.598,-59.570,0.000,0
1639023402.740,-31.738,-20.996,-33.691,-100.098,0.000,0
1639023402.743,111.816,-16.602,-35.156,1.465,0.000,0
1639023402.747,41.504,-17.090,-30.762,102.051,0.000,0
1639023402.751,-141.602,-17.090,-27.344,74.707,0.000,0
1639023402.755,-199.219,-19.043,-28.320,-38.574,0.000,0
1639023402.759,-32.715,-19.043,-26.855,-81.055,0.000,0
1639023402.763,110.840,-19.043,-30.273,-6.348,0.000,0
1639023402.766,57.617,-20.508,-32.715,94.727,0.000,0
1639023402.770,-124.023,-16.113,-27.344,83.008,0.000,0
1639023402.774,-205.566,-19.531,-33.203,-11.230,0.000,0
1639023402.778,-71.289,-24.902,-36.621,-62.500,0.000,0
1639023402.782,87.891,-22.461,-30.762,-24.414,0.000,0
1639023402.785,72.266,-19.531,-31.250,76.172,0.000,0
1639023402.789,-109.863,-17.578,-31.738,82.520,0.000,0
1639023402.793,-209.473,-10.254,-32.227,-20.996,0.000,0
1639023402.797,-88.379,-11.230,-37.598,-106.445,0.000,0
1639023402.800,80.078,-12.207,-39.062,-57.129,0.000,0
1639023402.804,85.449,-9.277,-35.645,62.012,0.000,0
1639023402.808,-84.473,-14.648,-36.133,96.191,0.000,0
1639023402.812,-218.262,-18.555,-43.945,3.906,0.000,0
1639023402.816,-124.512,-14.648,-47.363,-84.473,0.000,0
1639023402.819,57.617,-12.695,-39.551,-49.316,0.000,0
1639023402.823,95.215,-8.301,-33.203,45.898,0.000,0
1639023402.827,-63.965,-4.395,-37.598,85.449,0.000,0
1639023402.831,-221.680,-14.648,-41.992,0.000,0.000,0
1639023402.834,-134.766,-19.043,-44.922,-97.168,0.000,0
1639023402.838,58.594,-12.207,-44.922,-62.500,0.000,0
1639023402.842,103.027,-12.207,-41.016,44.434,0.000,0
1639023402.846,-34.180,-12.207,-40.039,92.285,0.000,0
1639023402.850,-191.406,-12.207,-41.992,25.391,0.000,0
1639023402.853,-145.996,-14.160,-44.922,-78.613,0.000,0
1639023402.857,33.691,-11.230,-41.992,-77.148,0.000,0
1639023402.861,116.699,-13.184,-37.598,39.062,0.000,0
1639023402.865,-16.602,-16.602,-41.992,108.398,0.000,0
1639023402.869,-194.824,-20.020,-48.828,34.668,0.000,0
1639023402.873,-175.781,-25.391,-52.246,-75.195,0.000,0
1639023402.876,7.324,-20.996,-46.387,-85.449,0.000,0
1639023402.880,102.539,-13.184,-39.551,4.395,0.000,0
1639023402.884,0.977,-8.301,-40.039,94.727,0.000,0
1639023402.887,-160.156,-12.695,-42.480,74.707,0.000,0
1639023402.891,-181.152,-19.531,-48.828,-44.434,0.000,0
1639023402.895,-23.926,-18.555,-53.711,-91.309,0.000,0
1639023402.899,107.910,-19.043,-50.781,-2.930,0.000,0
1639023402.903,30.762,-22.949,-44.922,92.285,0.000,0
1639023402.906,-152.344,-31.738,-47.852,76.660,0.000,0
1639023402.910,-204.102,-34.668,-47.363,-39.551,0.000,0
1639023402.914,-52.246,-26.367,-42.969,-104.004,0.000,0
1639023402.918,93.262,-20.996,-44.922,-24.902,0.000,0
1639023402.922,47.852,-10.254,-36.133,89.844,0.000,0
1639023402.925,-128.906,-10.254,-33.691,77.637,0.000,0
1639023402.929,-202.637,-19.531,-47.363,-35.645,0.000,0
1639023402.933,-64.941,-15.137,-45.410,-87.891,0.000,0
1639023402.937,89.844,-9.766,-33.691,-27.832,0.000,0
1639023402.940,60.547,-8.301,-28.320,69.336,0.000,0
1639023402.944,-118.652,-12.207,-27.832,77.637,0.000,0
1639023402.948,-195.801,-18.066,-33.203,-15.625,0.000,0
1639023402.952,-76.660,-19.043,-33.203,-80.566,0.000,0
1639023402.956,73.242,-15.625,-26.367,-42.969,0.000,0
1639023402.959,83.496,-15.137,-22.949,63.477,0.000,0
1639023402.963,-85.938,-18.066,-26.367,90.820,0.000,0
1639023402.967,-208.496,-16.602,-35.645,-9.277,0.000,0
1639023402.970,-107.910,-16.602,-43.457,-94.727,0.000,0
1639023402.974,68.848,-20.020,-41.992,-55.176,0.000,0
1639023402.978,93.262,-20.996,-36.133,50.293,0.000,0
1639023402.982,-75.684,-20.996,-33.691,83.496,0.000,0
1639023402.986,-214.355,-24.902,-40.527,4.395,0.000,0
1639023402.989,-142.090,-31.250,-49.316,-86.914,0.000,0
1639023402.993,51.270,-32.715,-48.828,-55.664,0.000,0
1639023402.997,92.773,-24.902,-41.016,46.875,0.000,0
1639023403.001,-79.102,-20.508,-37.109,80.078,0.000,0
1639023403.005,-230.469,-29.785,-45.898,21.484,0.000,0
1639023403.009,-180.664,-40.039,-53.223,-76.660,0.000,0
1639023403.012,9.277,-33.691,-43.945,-88.379,0.000,0
1639023403.016,91.309,-17.090,-36.133,23.438,0.000,0
1639023403.019,-37.598,-18.555,-39.062,90.332,0.000,0
1639023403.023,-206.055,-28.809,-41.504,16.602,0.000,0
1639023403.027,-193.848,-29.297,-41.992,-89.355,0.000,0
1639023403.031,-20.508,-27.344,-39.551,-88.867,0.000,0
1639023403.035,93.750,-31.250,-40.039,24.414,0.000,0
1639023403.038,-8.301,-33.203,-40.039,96.680,0.000,0
1639023403.042,-200.195,-30.762,-44.922,36.133,0.000,0
1639023403.046,-202.637,-36.621,-53.223,-62.500,0.000,0
1639023403.050,-29.785,-37.598,-50.293,-83.008,0.000,0
1639023403.054,82.520,-29.297,-38.574,-1.953,0.000,0
1639023403.058,0.000,-25.391,-28.320,87.402,0.000,0
1639023403.062,-177.246,-33.203,-28.809,66.406,0.000,0
1639023403.065,-208.984,-37.109,-38.574,-38.574,0.000,0
1639023403.069,-53.711,-33.691,-40.527,-97.168,0.000,0
1639023403.073,81.543,-26.367,-34.180,-28.320,0.000,0
1639023403.077,31.250,-25.391,-36.133,88.379,0.000,0
1639023403.081,-151.367,-31.738,-41.016,73.730,0.000,0
1639023403.084,-223.633,-35.156,-43.945,-42.969,0.000,0
1639023403.088,-67.383,-30.273,-45.898,-106.934,0.000,0
1639023403.092,85.938,-28.809,-41.016,-43.457,0.000,0
1639023403.096,40.039,-33.691,-38.574,63.477,0.000,0
1639023403.100,-133.301,-28.809,-37.598,64.453,0.000,0
1639023403.104,-227.539,-30.273,-40.039,-37.598,0.000,0
1639023403.108,-92.773,-36.621,-43.457,-100.586,0.000,0
1639023403.111,83.984,-31.738,-42.969,-43.945,0.000,0
1639023403.115,64.941,-29.785,-37.598,46.387,0.000,0
1639023403.119,-116.699,-32.715,-34.180,70.801,0.000,1
1639023403.123,-211.426,-31.250,-42.480,-1.465,0.000,0
1639023403.127,-112.793,-32.227,-46.875,-96.680,0.000,0
1639023403.130,48.828,-25.879,-42.480,-66.895,0.000,0
1639023403.134,90.332,-18.555,-36.133,50.781,0.000,0
1639023403.138,-68.359,-23.438,-36.621,96.191,0.000,0
1639023403.142,-214.844,-33.691,-44.434,11.230,0.000,0
1639023403.146,-145.508,-29.785,-41.504,-104.980,0.000,0
1639023403.150,41.992,-29.785,-40.039,-80.566,0.000,0
1639023403.154,85.449,-33.203,-39.551,30.273,0.000,0
1639023403.157,-72.754,-33.203,-40.039,68.359,0.000,0
1639023403.161,-217.285,-36.621,-46.387,-12.207,0.000,0
1639023403.165,-171.875,-37.598,-44.922,-101.562,0.000,0
1639023403.169,11.230,-38.574,-40.527,-94.727,0.000,0
1639023403.173,86.426,-32.227,-37.109,5.859,0.000,0
1639023403.176,-44.922,-25.391,-36.621,74.219,0.000,0
1639023403.180,-198.730,-29.785,-38.086,22.949,0.000,0
1639023403.184,-195.312,-39.551,-39.062,-76.172,0.000,0
1639023403.188,-32.227,-38.574,-36.621,-104.004,0.000,0
1639023403.192,84.961,-28.320,-32.227,-12.207,0.000,0
1639023403.196,-26.855,-29.785,-34.180,78.613,0.000,0
1639023403.199,-205.566,-35.645,-39.062,42.969,0.000,0
1639023403.203,-209.473,-35.645,-40.039,-76.172,0.000,0
1639023403.207,-41.504,-28.320,-34.668,-96.191,0.000,0
1639023403.211,75.684,-27.832,-31.738,0.000,0.000,0
1639023403.215,-21.484,-34.668,-31.738,82.520,0.000,0
1639023403.218,-201.172,-36.133,-35.156,58.594,0.000,0
1639023403.222,-228.516,-34.668,-44.434,-59.082,0.000,0
1639023403.226,-77.637,-41.992,-47.363,-99.121,0.000,0
1639023403.230,58.105,-40.527,-34.668,-3.418,0.000,0
1639023403.234,-1.953,-25.879,-28.320,73.242,0.000,0
1639023403.238,-183.594,-25.879,-36.133,55.176,0.000,0
1639023403.241,-236.816,-34.180,-39.551,-38.086,0.000,0
1639023403.245,-97.656,-30.762,-38.574,-97.656,0.000,0
1639023403.249,59.570,-25.879,-31.738,-29.297,0.000,0
1639023403.253,29.785,-26.855,-28.809,77.148,0.000,0
1639023403.257,-152.832,-26.367,-28.809,77.148,0.000,0
1639023403.261,-235.840,-30.762,-33.691,-33.203,0.000,0
1639023403.264,-103.027,-33.203,-41.016,-104.004,0.000,0
1639023403.268,73.242,-28.809,-35.645,-40.039,0.000,0
1639023403.272,55.664,-25.879,-32.227,73.730,0.000,0
1639023403.276,-143.555,-26.855,-31.738,77.148,0.000,0
1639023403.280,-254.395,-35.156,-30.273,-26.367,0.000,0
1639023403.283,-125.000,-34.180,-32.715,-91.797,0.000,0
1639023403.287,47.363,-31.250,-33.203,-57.129,0.000,0
1639023403.291,44.922,-27.344,-31.250,41.504,0.000,0
1639023403.295,-119.629,-24.902,-33.203,82.031,0.000,0
1639023403.299,-245.117,-31.738,-37.109,-0.977,0.000,0
1639023403.303,-151.367,-28.320,-39.551,-97.168,0.000,0
1639023403.306,33.203,-22.949,-35.156,-63.965,0.000,0
1639023403.310,65.430,-26.367,-35.156,49.316,0.000,0
1639023403.314,-83.984,-33.203,-40.527,100.098,0.000,0
1639023403.318,-225.586,-35.156,-42.480,25.879,0.000,0
1639023403.322,-184.082,-27.344,-41.504,-104.004,0.000,0
1639023403.325,14.648,-23.926,-43.457,-91.797,0.000,0
1639023403.329,90.332,-19.043,-43.457,20.996,0.000,0
1639023403.333,-69.336,-18.066,-43.945,87.891,0.000,0
1639023403.337,-228.516,-24.414,-43.945,26.367,0.000,0
1639023403.341,-188.965,-27.344,-44.922,-89.355,0.000,0
1639023403.344,-2.930,-24.414,-45.898,-92.285,0.000,0
1639023403.348,88.379,-22.461,-40.527,11.719,0.000,0
1639023403.352,-28.809,-27.832,-36.133,83.984,0.000,0
1639023403.356,-201.172,-29.785,-40.039,36.133,0.000,0
1639023403.360,-213.379,-34.668,-47.852,-65.430,0.000,0
1639023403.363,-42.969,-30.762,-42.480,-83.984,0.000,0
1639023403.367,81.055,-20.996,-38.574,-4.395,0.000,0
1639023403.371,-8.301,-25.879,-39.062,85.938,0.000,0
1639023403.375,-188.965,-32.715,-41.992,53.711,0.000,0
1639023403.379,-236.328,-31.250,-45.410,-69.336,0.000,0
1639023403.382,-69.824,-30.273,-43.945,-104.492,0.000,0
1639023403.386,69.336,-33.691,-40.039,-8.789,0.000,0
1639023403.390,-9.277,-32.227,-40.527,86.426,0.000,0
1639023403.394,-195.312,-31.738,-44.434,62.988,0.000,0
1639023403.398,-248.047,-30.273,-43.945,-43.945,0.000,0
1639023403.402,-78.613,-31.738,-46.387,-88.867,0.000,0
1639023403.405,68.359,-27.344,-41.016,-15.137,0.000,0
1639023403.409,24.414,-18.555,-30.273,72.754,0.000,0
1639023403.413,-134.277,-21.973,-37.109,78.613,0.000,0
1639023403.417,-223.633,-32.227,-47.852,-34.668,0.000,0
1639023403.421,-100.586,-30.273,-43.945,-107.910,0.000,0
1639023403.424,61.523,-20.020,-43.945,-45.898,0.000,0
1639023403.429,58.594,-18.066,-43.457,55.664,0.000,0
1639023403.433,-104.492,-19.043,-39.551,84.961,0.000,0
1639023403.436,-215.820,-25.879,-39.551,-3.906,0.000,0
1639023403.440,-107.910,-25.879,-40.039,-93.750,0.000,0
1639023403.444,60.059,-25.879,-41.016,-58.594,0.000,0
1639023403.448,69.336,-24.902,-41.016,57.617,0.000,0
1639023403.452,-98.145,-20.020,-38.086,96.191,0.000,0
1639023403.455,-229.492,-22.461,-38.086,2.930,0.000,0
1639023403.459,-129.883,-25.879,-41.992,-92.285,0.000,0
1639023403.463,50.781,-23.438,-42.480,-53.223,0.000,0
1639023403.467,78.125,-20.508,-38.086,45.410,0.000,0
1639023403.471,-74.707,-25.391,-35.156,88.867,0.000,0
1639023403.475,-208.496,-29.297,-36.133,18.066,0.000,0
1639023403.479,-149.902,-24.902,-39.062,-91.797,0.000,0
1639023403.483,16.602,-21.484,-39.062,-85.449,0.000,0
1639023403.486,83.984,-17.578,-32.715,26.855,0.000,0
1639023403.490,-54.199,-15.137,-35.645,100.098,0.000,0
1639023403.494,-205.566,-20.020,-46.875,39.062,0.000,0
1639023403.498,-172.363,-18.555,-43.457,-75.684,0.000,0
1639023403.502,3.906,-12.207,-34.180,-97.656,0.000,0
1639023403.506,95.215,-20.996,-39.062,17.578,0.000,0
1639023403.509,-21.484,-22.949,-35.645,93.750,0.000,0
1639023403.513,-196.289,-15.625,-28.320,26.367,0.000,0
1639023403.517,-192.383,-19.043,-34.668,-61.035,0.000,0
1639023403.521,-7.324,-18.066,-33.691,-82.031,0.000,0
1639023403.525,109.863,-10.254,-29.297,-0.977,0.000,0
1639023403.529,0.488,-7.324,-28.320,88.867,0.000,0
1639023403.533,-184.082,-17.578,-32.227,50.293,0.000,0
1639023403.537,-207.520,-22.461,-38.086,-56.152,0.000,0
1639023403.540,-41.504,-16.602,-33.691,-86.426,0.000,0
1639023403.544,92.285,-16.113,-30.273,-4.883,0.000,0
1639023403.548,15.625,-15.625,-34.668,93.750,0.000,0
1639023403.552,-167.480,-17.578,-36.133,83.008,0.000,0
1639023403.556,-212.891,-12.207,-31.738,-36.621,0.000,0
1639023403.559,-44.922,0.000,-30.273,-91.797,0.000,0
1639023403.563,108.398,-4.395,-32.715,-15.137,0.000,0
1639023403.567,55.664,-6.348,-27.832,91.309,0.000,0
1639023403.571,-129.883,-0.977,-29.785,76.660,0.000,0
1639023403.575,-207.031,-9.766,-39.062,-46.875,0.000,0
1639023403.579,-72.266,-19.531,-41.992,-103.027,0.000,0
1639023403.583,98.633,-14.648,-40.039,-31.250,0.000,0
1639023403.587,77.637,-7.324,-30.273,76.660,0.000,0
1639023403.590,-109.375,-10.742,-31.250,81.543,0.000,0
1639023403.594,-212.402,-22.949,-43.457,-8.301,0.000,0
1639023403.598,-93.750,-26.367,-42.480,-83.008,0.000,0
1639023403.602,71.777,-20.020,-38.574,-63.477,0.000,0
1639023403.606,82.031,-17.090,-31.738,54.199,0.000,0
1639023403.609,-85.449,-20.020,-27.832,103.516,0.000,0
1639023403.614,-222.168,-21.484,-35.645,12.207,0.000,0
1639023403.617,-123.535,-20.996,-38.086,-81.055,0.000,0
1639023403.621,57.617,-23.926,-39.062,-64.941,0.000,0
1639023403.625,84.473,-17.090,-34.668,49.805,0.000,0
1639023403.629,-67.383,-14.648,-35.156,97.168,0.000,0
1639023403.633,-209.961,-21.484,-41.504,6.836,0.000,0
1639023403.636,-148.438,-24.902,-43.457,-99.609,0.000,0
1639023403.640,40.039,-26.855,-38.086,-64.941,0.000,0
1639023403.644,85.938,-22.461,-29.297,52.246,0.000,0
1639023403.648,-66.895,-20.508,-23.926,89.844,0.000,0
1639023403.652,-204.590,-27.344,-28.320,18.555,0.000,0
1639023403.656,-161.621,-31.738,-39.062,-69.824,0.000,0
1639023403.660,20.020,-23.438,-36.621,-76.660,0.000,0
1639023403.664,95.215,-15.137,-27.344,20.020,0.000,0
1639023403.667,-26.855,-17.090,-33.203,99.121,0.000,0
1639023403.671,-191.406,-21.484,-38.086,40.039,0.000,0
1639023403.675,-192.871,-22.461,-38.574,-72.266,0.000,0
1639023403.679,-14.160,-23.438,-36.133,-85.938,0.000,0
1639023403.683,92.773,-23.926,-28.320,22.949,0.000,0
1639023403.686,-2.930,-20.996,-28.320,104.980,0.000,0
1639023403.690,-174.805,-19.043,-27.832,36.621,0.000,0
1639023403.694,-198.730,-29.297,-29.297,-66.895,0.000,0
1639023403.698,-32.715,-32.227,-31.738,-93.750,0.000,0
1639023403.702,104.004,-29.785,-23.926,-7.812,0.000,0
1639023403.706,25.391,-25.879,-14.648,85.938,0.000,0
1639023403.710,-150.391,-19.531,-17.578,56.152,0.000,0
1639023403.713,-184.082,-21.973,-27.344,-45.410,0.000,0
1639023403.717,-41.504,-27.344,-32.227,-97.168,0.000,0
1639023403.721,83.984,-29.297,-29.785,-20.996,0.000,0
1639023403.725,32.715,-28.809,-28.320,90.820,0.000,0
1639023403.729,-141.602,-33.691,-36.133,95.703,0.000,0
1639023403.732,-222.168,-30.273,-35.645,-17.578,0.000,0
1639023403.736,-78.125,-23.438,-30.273,-101.562,0.000,0
1639023403.740,80.078,-20.996,-30.762,-36.133,0.000,0
1639023403.744,42.969,-16.113,-27.832,71.777,0.000,0
1639023403.748,-125.977,-8.789,-22.461,83.984,0.000,0
1639023403.752,-216.309,-14.160,-24.902,-14.160,0.000,0
1639023403.755,-82.520,-21.973,-27.344,-91.797,0.000,0
1639023403.759,79.102,-21.973,-28.320,-43.457,0.000,0
1639023403.763,66.406,-23.438,-26.367,67.871,0.000,0
1639023403.767,-107.910,-20.508,-26.855,89.844,0.000,0
1639023403.771,-223.145,-26.367,-35.156,11.230,0.000,0
1639023403.775,-121.582,-30.762,-40.039,-73.730,0.000,0
1639023403.778,42.969,-23.438,-34.180,-58.105,0.000,0
1639023403.782,82.520,-20.020,-26.855,55.176,0.000,0
1639023403.786,-70.312,-23.926,-28.320,102.051,0.000,0
1639023403.790,-223.145,-24.414,-31.250,21.484,0.000,0
1639023403.794,-156.250,-21.484,-37.109,-94.238,0.000,0
1639023403.798,30.762,-23.438,-41.992,-87.891,0.000,0
1639023403.802,93.750,-20.020,-32.715,31.738,0.000,0
1639023403.806,-48.828,-20.020,-28.320,84.961,0.000,0
1639023403.810,-206.055,-20.508,-36.133,12.695,0.000,0
1639023403.813,-154.297,-25.391,-37.598,-74.707,0.000,0
1639023403.817,34.180,-25.391,-32.715,-61.035,0.000,0
1639023403.821,92.773,-15.625,-20.996,51.758,0.000,0
1639023403.825,-50.293,-16.113,-20.020,125.488,0.000,0
1639023403.829,-197.754,-21.973,-31.738,50.293,0.000,0
1639023403.833,-180.664,-23.926,-36.133,-64.941,0.000,0
1639023403.836,-7.324,-16.602,-29.297,-81.055,0.000,0
1639023403.840,101.562,-12.207,-25.391,21.973,0.000,0
1639023403.845,-2.441,-18.555,-28.320,119.629,0.000,0
1639023403.848,-166.992,-27.344,-36.621,58.594,0.000,0
1639023403.852,-178.223,-28.320,-37.109,-64.941,0.000,0
1639023403.856,-15.625,-21.973,-30.273,-82.520,0.000,0
1639023403.860,111.816,-13.672,-28.809,16.113,0.000,0
1639023403.864,30.273,-15.625,-31.250,96.680,0.000,0
1639023403.868,-154.785,-19.531,-36.133,62.500,0.000,0
1639023403.871,-206.543,-16.113,-36.133,-39.551,0.000,0
1639023403.875,-47.852,-20.996,-38.574,-75.195,0.000,0
1639023403.879,111.816,-15.625,-32.227,0.488,0.000,0
1639023403.883,59.082,-4.883,-24.414,84.961,0.000,0
1639023403.887,-142.090,-16.602,-30.273,79.590,0.000,0
1639023403.891,-199.219,-24.414,-35.645,-15.137,0.000,0
1639023403.895,-46.875,-16.602,-32.227,-76.660,0.000,0
1639023403.899,82.031,-7.324,-21.973,-20.996,0.000,0
1639023403.903,58.105,-1.953,-21.484,90.820,0.000,0
1639023403.906,-109.375,-11.230,-27.832,104.004,0.000,0
1639023403.910,-196.777,-18.555,-29.785,-0.977,0.000,0
1639023403.914,-71.777,-18.066,-29.297,-89.355,0.000,0
1639023403.918,86.426,-19.043,-26.855,-30.273,0.000,0
1639023403.922,78.613,-20.020,-23.926,90.820,0.000,1
1639023403.925,-87.891,-10.742,-16.602,105.957,0.000,0
1639023403.929,-207.031,-3.418,-16.113,10.742,0.000,0
1639023403.933,-105.957,-5.371,-19.043,-78.125,0.000,0
1639023403.937,88.867,-7.812,-15.137,-45.898,0.000,0
1639023403.941,104.004,-4.395,-17.578,57.129,0.000,0
1639023403.945,-73.730,-8.789,-23.926,97.656,0.000,0
1639023403.949,-202.637,-16.602,-31.738,20.996,0.000,0
1639023403.953,-115.234,-18.555,-38.086,-73.242,0.000,0
1639023403.957,64.941,-17.090,-38.574,-51.270,0.000,0
1639023403.960,105.469,-7.324,-30.273,47.852,0.000,0
1639023403.964,-35.156,-6.348,-28.809,117.188,0.000,0
1639023403.968,-192.871,-18.555,-36.133,50.781,0.000,0
1639023403.972,-147.949,-19.043,-32.715,-86.426,0.000,0
1639023403.976,35.645,-18.555,-31.250,-73.730,0.000,0
1639023403.979,98.633,-16.602,-32.715,35.156,0.000,0
1639023403.984,-37.109,-14.160,-28.320,85.449,0.000,0
1639023403.988,-197.754,-16.113,-28.320,27.344,0.000,0
1639023403.991,-164.551,-17.578,-32.227,-82.520,0.000,0
1639023403.995,11.230,-17.090,-29.785,-93.262,0.000,0
1639023403.999,98.145,-13.672,-31.250,20.020,0.000,0
1639023404.003,-8.789,-15.137,-36.621,103.516,0.000,0
1639023404.007,-163.086,-20.508,-36.621,53.223,0.000,0
1639023404.011,-168.945,-23.926,-38.574,-42.480,0.000,0
1639023404.014,-15.137,-21.973,-37.598,-80.078,0.000,0
1639023404.018,92.773,-14.160,-29.297,-9.766,0.000,0
1639023404.022,15.137,-13.184,-28.809,82.031,0.000,0
1639023404.026,-166.992,-18.555,-36.621,56.152,0.000,0
1639023404.030,-200.684,-25.391,-37.598,-65.430,0.000,0
1639023404.034,-30.273,-24.902,-34.180,-98.633,0.000,0
1639023404.038,101.074,-23.926,-34.180,-6.348,0.000,0
1639023404.041,40.527,-17.578,-34.180,77.148,0.000,0
1639023404.045,-138.184,-18.555,-35.645,63.965,0.000,0
1639023404.049,-204.590,-31.250,-41.504,-40.039,0.000,0
1639023404.053,-57.617,-36.133,-42.480,-98.633,0.000,0
1639023404.057,88.379,-28.809,-33.691,-19.531,0.000,0
1639023404.061,42.969,-20.996,-29.785,66.406,0.000,0
1639023404.064,-130.371,-23.438,-32.227,67.383,0.000,0
1639023404.068,-222.168,-29.297,-38.574,-31.250,0.000,0
1639023404.072,-92.285,-27.832,-41.504,-101.562,0.000,0
1639023404.076,81.543,-17.090,-34.668,-40.527,0.000,0
1639023404.080,79.102,-15.137,-28.320,74.219,0.000,0
1639023404.084,-94.238,-24.414,-35.156,95.703,0.000,0
1639023404.088,-216.309,-29.297,-41.992,-1.465,0.000,0
1639023404.092,-104.004,-25.391,-40.039,-75.684,0.000,0
1639023404.095,76.172,-21.973,-31.738,-44.434,0.000,0
1639023404.099,95.215,-23.926,-28.320,64.941,0.000,0
1639023404.103,-67.383,-26.367,-33.203,90.820,0.000,0
1639023404.107,-209.473,-26.367,-38.574,-11.719,0.000,0
1639023404.111,-133.301,-28.320,-41.016,-105.469,0.000,0
1639023404.114,43.457,-27.344,-37.598,-80.078,0.000,0
1639023404.118,82.031,-22.461,-26.855,33.691,0.000,0
1639023404.122,-67.383,-21.484,-20.996,85.449,0.000,0
1639023404.126,-211.426,-26.367,-35.156,8.789,0.000,0
1639023404.130,-162.598,-31.250,-38.574,-100.586,0.000,0
1639023404.134,9.766,-28.320,-33.691,-92.773,0.000,0
1639023404.138,85.938,-28.320,-33.691,30.762,0.000,0
1639023404.141,-36.621,-35.156,-33.691,113.281,0.000,0
1639023404.145,-195.312,-45.410,-37.598,39.062,0.000,0
1639023404.149,-173.828,-46.875,-35.645,-95.703,0.000,0
1639023404.153,-1.465,-44.434,-27.344,-96.191,0.000,0
1639023404.157,94.727,-40.527,-23.926,9.766,0.000,0
1639023404.161,-16.602,-44.922,-24.902,82.520,0.000,0
1639023404.164,-192.871,-47.852,-29.297,44.922,0.000,0
1639023404.169,-183.594,-45.410,-37.109,-58.594,0.000,0
1639023404.173,-18.555,-44.922,-32.227,-90.332,0.000,0
1639023404.177,92.773,-40.039,-25.879,1.953,0.000,0
1639023404.180,17.578,-37.598,-26.367,87.402,0.000,0
1639023404.184,-157.715,-48.340,-33.203,48.340,0.000,0
1639023404.188,-189.941,-54.688,-41.016,-60.059,0.000,0
1639023404.192,-27.832,-48.340,-39.551,-102.051,0.000,0
1639023404.196,105.469,-45.410,-32.227,-15.137,0.000,0
1639023404.200,39.062,-45.898,-30.273,102.539,0.000,0
1639023404.203,-124.023,-47.852,-34.180,83.496,0.000,0
1639023404.207,-186.035,-49.316,-34.668,-56.152,0.000,0
1639023404.211,-59.570,-50.293,-33.203,-108.398,0.000,0
1639023404.216,94.238,-55.176,-32.715,-22.461,0.000,0
1639023404.219,54.688,-57.617,-31.250,65.918,0.000,0
1639023404.223,-130.371,-55.664,-30.273,72.266,0.000,0
1639023404.227,-210.938,-55.664,-32.715,-24.414,0.000,0
1639023404.231,-73.730,-55.664,-32.715,-98.145,0.000,0
1639023404.235,79.590,-57.129,-32.227,-27.344,0.000,0
1639023404.239,58.105,-45.410,-28.809,72.266,0.000,0
1639023404.242,-112.793,-37.109,-21.973,80.566,0.000,0
1639023404.246,-216.797,-52.734,-34.180,-2.930,0.000,0
1639023404.250,-114.746,-62.988,-41.992,-83.984,0.000,0
1639023404.254,41.504,-50.293,-32.715,-57.617,0.000,0
1639023404.258,64.941,-40.039,-27.344,59.570,0.000,0
1639023404.262,-90.332,-42.480,-28.809,90.332,0.000,0
1639023404.266,-217.773,-41.504,-33.203,-6.348,0.000,0
1639023404.270,-135.742,-37.109,-34.180,-94.727,0.000,0
1639023404.274,42.480,-41.016,-29.297,-57.129,0.000,0
1639023404.277,87.891,-41.992,-25.391,59.570,0.000,0
1639023404.281,-68.848,-45.898,-31.250,98.633,0.000,0
1639023404.285,-219.727,-49.316,-40.039,17.090,0.000,0
1639023404.289,-165.527,-47.852,-42.969,-80.566,0.000,0
1639023404.293,12.207,-52.246,-41.504,-69.336,0.000,0
1639023404.297,80.078,-41.992,-32.715,23.926,0.000,0
1639023404.300,-53.711,-29.297,-26.367,90.332,0.000,0
1639023404.304,-205.078,-32.715,-28.320,33.203,0.000,0
1639023404.309,-173.340,-41.992,-31.738,-82.520,0.000,0
1639023404.312,2.441,-44.434,-28.809,-84.961,0.000,0
1639023404.316,80.566,-46.387,-25.879,25.391,0.000,0
1639023404.320,-41.992,-54.688,-32.715,95.215,0.000,0
1639023404.324,-184.570,-54.199,-33.691,54.199,0.000,0
1639023404.328,-185.059,-55.664,-37.109,-49.805,0.000,0
1639023404.332,-28.320,-54.688,-39.551,-87.402,0.000,0
1639023404.335,78.125,-53.711,-29.297,6.836,0.000,0
1639023404.339,-21.973,-56.152,-29.785,101.074,0.000,0
1639023404.343,-195.801,-52.246,-33.203,51.758,0.000,0
1639023404.347,-213.867,-52.246,-35.156,-72.266,0.000,0
1639023404.351,-44.434,-52.734,-37.598,-96.191,0.000,0
1639023404.355,85.938,-42.969,-29.297,-11.719,0.000,0
1639023404.359,18.555,-36.133,-28.809,78.125,0.000,0
1639023404.363,-162.598,-45.410,-43.945,62.500,0.000,0
1639023404.367,-227.539,-49.805,-53.223,-51.270,0.000,0
1639023404.370,-73.242,-48.340,-49.316,-105.469,0.000,0
1639023404.374,89.844,-40.527,-43.457,-30.762,0.000,0
1639023404.378,36.133,-37.109,-39.062,71.289,0.000,0
1639023404.382,-137.695,-45.410,-39.551,82.520,0.000,0
1639023404.386,-211.426,-40.039,-41.504,-24.414,0.000,0
1639023404.390,-86.426,-36.621,-43.457,-118.652,0.000,0
1639023404.393,76.660,-39.062,-41.016,-53.711,0.000,0
1639023404.397,61.035,-37.109,-37.598,70.801,0.000,0
1639023404.401,-123.535,-36.133,-38.574,75.684,0.000,0
1639023404.405,-229.492,-38.574,-38.086,-36.133,0.000,0
1639023404.409,-111.816,-42.969,-42.969,-100.098,0.000,0
1639023404.413,59.082,-38.574,-41.504,-36.621,0.000,0
1639023404.417,63.965,-33.203,-32.715,54.199,0.000,0
1639023404.421,-104.004,-35.645,-36.133,68.359,0.000,0
1639023404.424,-218.750,-39.062,-44.434,-8.301,0.000,0
1639023404.428,-131.836,-35.156,-40.039,-97.656,0.000,0
1639023404.432,48.340,-26.855,-33.691,-91.797,0.000,0
1639023404.436,83.984,-26.855,-33.691,22.461,0.000,0
1639023404.440,-70.801,-25.879,-31.738,73.242,0.000,0
1639023404.444,-213.379,-25.879,-40.039,-4.395,0.000,0
1639023404.448,-170.410,-32.227,-47.852,-116.699,0.000,0
1639023404.452,7.324,-31.250,-41.504,-101.562,0.000,0
1639023404.455,84.961,-21.973,-35.156,17.090,0.000,0
1639023404.459,-51.758,-20.020,-33.203,73.730,0.000,0
1639023404.463,-207.031,-24.902,-35.645,7.812,0.000,0
1639023404.467,-173.828,-22.461,-40.039,-85.938,0.000,0
1639023404.471,6.836,-23.926,-41.992,-59.570,0.000,0
1639023404.475,89.844,-27.344,-40.039,25.879,0.000,0
1639023404.478,-30.762,-19.531,-34.668,66.895,0.000,0
1639023404.482,-188.965,-19.043,-36.621,42.969,0.000,0
1639023404.486,-184.570,-21.484,-39.062,-76.660,0.000,0
1639023404.490,-23.926,-13.672,-39.062,-122.070,0.000,0
1639023404.494,96.680,-14.648,-35.645,-2.441,0.000,0
1639023404.498,12.207,-18.555,-29.297,93.262,0.000,0
1639023404.502,-174.805,-18.066,-30.273,52.246,0.000,0
1639023404.506,-194.336,-21.484,-36.133,-69.824,0.000,0
1639023404.509,-28.320,-24.902,-39.551,-118.652,0.000,0
1639023404.513,100.586,-28.809,-41.992,-20.020,0.000,0
1639023404.517,28.320,-24.902,-38.574,97.656,0.000,0
1639023404.521,-146.973,-20.020,-33.691,63.477,0.000,0
1639023404.525,-201.172,-22.461,-33.691,-57.617,0.000,0
1639023404.529,-60.059,-24.902,-40.527,-118.652,0.000,0
1639023404.532,89.355,-24.414,-40.527,-51.270,0.000,0
1639023404.536,46.387,-17.578,-29.297,44.922,0.000,0
1639023404.541,-135.254,-15.137,-32.715,41.992,0.000,0
1639023404.545,-211.914,-16.602,-35.645,-51.270,0.000,0
1639023404.548,-76.660,-17.090,-29.785,-115.234,0.000,0
1639023404.552,79.102,-13.672,-26.367,-57.617,0.000,0
1639023404.556,56.152,-12.695,-28.809,42.480,0.000,0
1639023404.560,-119.629,-18.555,-36.621,50.781,0.000,0
1639023404.564,-216.309,-23.926,-42.480,-44.434,0.000,0
1639023404.568,-100.098,-24.414,-41.504,-128.906,0.000,0
1639023404.571,73.730,-19.043,-36.133,-74.707,0.000,0
1639023404.575,89.355,-16.602,-32.715,60.547,0.000,0
1639023404.579,-94.727,-14.160,-32.715,61.523,0.000,0
1639023404.583,-218.262,-16.602,-31.738,-43.945,0.000,0
1639023404.588,-123.535,-23.438,-33.691,-112.305,0.000,0
1639023404.591,44.434,-23.926,-33.203,-73.242,0.000,0
1639023404.595,72.266,-18.555,-33.203,40.039,0.000,0
1639023404.599,-73.730,-16.602,-33.691,76.172,0.000,0
1639023404.603,-201.172,-24.414,-33.691,-15.625,0.000,0
1639023404.607,-145.996,-30.273,-37.109,-103.516,0.000,0
1639023404.610,29.297,-23.438,-30.273,-89.355,0.000,0
1639023404.614,80.078,-20.508,-27.832,-5.371,0.000,0
1639023404.618,-62.988,-24.902,-34.180,65.430,0.000,0
1639023404.622,-211.426,-23.438,-30.273,11.230,0.000,0
1639023404.626,-171.875,-20.020,-26.367,-115.723,0.000,0
1639023404.630,15.137,-22.461,-22.949,-95.215,0.000,0
1639023404.634,96.191,-19.043,-13.672,20.996,0.000,0
1639023404.638,-34.668,-13.672,-5.371,73.730,0.000,0
1639023404.642,-204.102,-18.555,-5.859,10.254,0.000,0
1639023404.646,-187.012,-24.414,-15.625,-96.680,0.000,0
1639023404.649,-7.812,-29.297,-18.066,-112.793,0.000,0
1639023404.653,93.262,-31.250,-18.066,-13.672,0.000,0
1639023404.657,-2.930,-28.809,-19.043,63.965,0.000,0
1639023404.661,-168.945,-32.715,-20.508,15.625,0.000,0
1639023404.665,-208.008,-41.504,-28.809,-81.055,0.000,0
1639023404.669,-56.152,-34.180,-25.391,-119.629,0.000,0
1639023404.672,75.195,-26.855,-17.578,-40.527,0.000,0
1639023404.676,3.418,-27.832,-19.043,65.430,0.000,0
1639023404.681,-182.129,-31.738,-17.090,51.270,0.000,0
1639023404.685,-229.980,-32.227,-18.066,-73.730,0.000,0
1639023404.688,-76.172,-34.180,-23.926,-140.137,0.000,0
1639023404.692,58.105,-34.668,-23.438,-59.570,0.000,0
1639023404.696,5.371,-31.250,-15.625,42.480,0.000,0
1639023404.700,-166.992,-30.762,-16.113,38.574,0.000,0
1639023404.704,-228.027,-31.738,-23.926,-57.129,0.000,0
1639023404.708,-87.402,-40.039,-33.203,-114.746,0.000,0
1639023404.711,60.059,-38.086,-28.320,-50.293,0.000,0
1639023404.715,26.855,-29.785,-16.113,24.902,0.000,0
1639023404.719,-131.836,-28.320,-23.438,31.250,0.000,0
1639023404.723,-229.004,-23.926,-32.227,-57.617,0.000,0
1639023404.727,-125.977,-24.414,-28.809,-135.254,0.000,0
1639023404.731,34.180,-21.484,-22.461,-85.938,0.000,0
1639023404.735,37.598,-20.508,-20.020,24.902,0.000,0
1639023404.739,-120.117,-24.902,-22.461,51.758,0.000,0
1639023404.743,-236.328,-24.902,-30.762,-50.781,0.000,0
1639023404.746,-150.391,-27.832,-34.668,-143.066,0.000,0
1639023404.750,27.344,-29.297,-33.691,-99.121,0.000,0
1639023404.754,58.105,-32.715,-29.785,25.879,0.000,1
1639023404.758,-113.770,-34.180,-25.879,56.152,0.000,0
1639023404.762,-236.816,-35.645,-27.832,-41.992,0.000,0
1639023404.766,-157.227,-42.480,-31.738,-142.090,0.000,0
1639023404.769,2.930,-42.969,-32.715,-117.676,0.000,0
1639023404.774,54.688,-35.645,-32.715,-12.207,0.000,0
1639023404.778,-64.453,-27.832,-28.809,40.039,0.000,0
1639023404.781,-218.750,-32.715,-35.645,-28.320,0.000,0
1639023404.785,-200.684,-27.832,-38.086,-119.629,0.000,0
1639023404.789,-25.391,-16.113,-28.809,-115.234,0.000,0
1639023404.793,59.570,-19.531,-23.926,-29.785,0.000,0
1639023404.797,-65.430,-24.902,-26.855,51.758,0.000,0
1639023404.801,-222.168,-21.973,-24.414,7.324,0.000,0
1639023404.804,-218.262,-18.555,-27.832,-115.234,0.000,0
1639023404.808,-51.270,-25.391,-36.621,-129.883,0.000,0
1639023404.812,59.570,-25.391,-28.809,-25.879,0.000,0
1639023404.816,-39.551,-22.461,-17.578,54.199,0.000,0
1639023404.820,-210.449,-23.438,-18.555,10.742,0.000,0
1639023404.824,-223.633,-24.414,-29.297,-104.004,0.000,0
1639023404.828,-52.734,-18.555,-30.273,-134.277,0.000,0
1639023404.832,71.289,-11.230,-19.043,-38.086,0.000,0
1639023404.836,-15.137,-5.859,-18.066,61.523,0.000,0
1639023404.839,-190.918,-9.277,-26.855,41.504,0.000,0
1639023404.843,-227.539,-20.020,-33.691,-73.730,0.000,0
1639023404.847,-78.613,-17.578,-31.738,-130.371,0.000,0
1639023404.851,44.922,-11.230,-20.508,-61.523,0.000,0
1639023404.855,-3.906,-14.648,-23.438,40.527,0.000,0
1639023404.859,-170.410,-19.531,-30.762,33.203,0.000,0
1639023404.862,-249.023,-17.578,-32.715,-65.430,0.000,0
1639023404.867,-106.445,-12.695,-32.227,-114.746,0.000,0
1639023404.870,60.547,-12.207,-25.391,-49.316,0.000,0
1639023404.874,22.949,-15.137,-20.996,50.781,0.000,0
1639023404.878,-150.391,-10.742,-19.043,50.781,0.000,0
1639023404.882,-238.281,-13.184,-22.949,-50.293,0.000,0
1639023404.886,-119.629,-26.367,-32.227,-106.445,0.000,0
1639023404.890,50.293,-27.832,-30.762,-60.059,0.000,0
1639023404.893,36.621,-20.508,-27.344,23.926,0.000,0
1639023404.897,-125.977,-23.438,-29.297,46.387,0.000,0
1639023404.901,-225.098,-31.250,-36.621,-16.602,0.000,0
1639023404.905,-141.113,-29.297,-37.109,-101.562,0.000,0
1639023404.909,30.273,-20.996,-25.879,-83.984,0.000,0
1639023404.913,52.734,-17.578,-28.809,41.504,0.000,0
1639023404.917,-112.305,-26.855,-35.645,73.730,0.000,0
1639023404.921,-236.816,-43.457,-41.992,-22.461,0.000,0
1639023404.925,-166.016,-48.340,-43.945,-114.258,0.000,0
1639023404.929,2.930,-45.410,-36.621,-100.098,0.000,0
1639023404.933,52.246,-45.898,-34.180,17.578,0.000,0
1639023404.936,-97.168,-47.852,-40.039,63.477,0.000,0
1639023404.940,-243.652,-54.199,-46.387,-21.973,0.000,0
1639023404.944,-196.289,-59.570,-53.223,-112.305,0.000,0
1639023404.948,-10.254,-54.199,-48.828,-104.004,0.000,0
1639023404.952,68.848,-45.410,-37.598,4.395,0.000,0
1639023404.956,-69.336,-40.039,-38.086,64.453,0.000,0
1639023404.960,-229.004,-43.457,-41.504,-5.371,0.000,0
1639023404.964,-203.125,-46.387,-41.504,-103.027,0.000,0
1639023404.968,-34.668,-38.574,-39.062,-115.234,0.000,0
1639023404.972,59.082,-30.762,-39.062,-12.695,0.000,0
1639023404.975,-49.805,-30.762,-37.109,80.566,0.000,0
1639023404.979,-208.984,-34.180,-36.133,36.133,0.000,0
1639023404.983,-205.078,-32.227,-39.551,-87.402,0.000,0
1639023404.987,-46.387,-29.785,-39.551,-122.559,0.000,0
1639023404.991,65.918,-33.203,-32.715,-19.531,0.000,0
1639023404.995,-15.137,-30.762,-28.809,76.172,0.000,0
1639023404.998,-188.965,-30.273,-34.668,22.949,0.000,0
1639023405.002,-215.820,-37.109,-40.039,-86.426,0.000,0
1639023405.007,-66.895,-40.527,-41.016,-129.883,0.000,0
1639023405.011,59.082,-26.855,-32.227,-52.246,0.000,0
1639023405.014,3.418,-17.578,-25.391,60.547,0.000,0
1639023405.018,-167.969,-26.855,-35.645,48.340,0.000,0
1639023405.022,-226.074,-33.691,-40.039,-66.895,0.000,0
1639023405.026,-86.914,-35.645,-41.016,-121.582,0.000,0
1639023405.030,64.453,-35.156,-36.133,-55.664,0.000,0
1639023405.034,34.180,-32.227,-30.273,44.922,0.000,0
1639023405.037,-145.020,-33.203,-31.738,69.336,0.000,0
1639023405.041,-231.934,-32.715,-31.250,-36.133,0.000,0
1639023405.045,-102.051,-25.879,-30.762,-120.117,0.000,0
1639023405.049,47.852,-22.949,-34.180,-49.805,0.000,0
1639023405.053,31.250,-28.320,-37.598,61.523,0.000,0
1639023405.057,-129.883,-33.691,-37.109,54.688,0.000,0
1639023405.061,-228.516,-35.156,-38.086,-45.410,0.000,0
1639023405.065,-118.652,-34.668,-37.598,-92.285,0.000,0
1639023405.069,48.828,-37.598,-39.551,-54.199,0.000,0
1639023405.073,65.430,-44.434,-38.086,31.738,0.000,0
1639023405.076,-99.609,-37.109,-32.715,70.801,0.000,0
1639023405.080,-222.168,-31.738,-37.109,-0.488,0.000,0
1639023405.084,-133.789,-29.785,-39.062,-92.285,0.000,0
1639023405.088,29.297,-19.043,-32.715,-82.031,0.000,0
1639023405.092,78.125,-20.996,-33.691,25.879,0.000,0
1639023405.096,-62.988,-23.438,-32.715,92.773,0.000,0
1639023405.100,-210.449,-26.367,-31.738,19.043,0.000,0
1639023405.104,-159.668,-25.879,-33.691,-106.445,0.000,0
1639023405.108,11.230,-20.996,-30.273,-90.820,0.000,0
1639023405.112,74.707,-19.043,-27.832,20.020,0.000,0
1639023405.115,-60.547,-18.555,-30.762,77.637,0.000,0
1639023405.119,-217.285,-23.438,-37.598,16.113,0.000,0
1639023405.123,-179.688,-31.738,-40.527,-87.891,0.000,0
1639023405.127,-3.906,-31.738,-33.203,-89.844,0.000,0
1639023405.131,83.008,-17.578,-20.020,-6.836,0.000,0
1639023405.135,-26.855,-17.090,-18.555,69.824,0.000,0
1639023405.138,-184.082,-25.879,-23.438,41.504,0.000,0
1639023405.142,-181.641,-24.902,-22.461,-67.383,0.000,0
1639023405.147,-36.621,-17.090,-19.531,-102.539,0.000,0
1639023405.151,78.613,-11.719,-14.160,-12.695,0.000,0
1639023405.154,-3.906,-20.996,-10.254,71.777,0.000,0
1639023405.158,-186.035,-24.902,-14.648,41.992,0.000,0
1639023405.162,-224.609,-24.902,-17.090,-57.129,0.000,0
1639023405.166,-68.359,-30.762,-18.555,-106.445,0.000,0
1639023405.170,75.195,-31.738,-20.996,-31.738,0.000,0
1639023405.174,16.602,-27.832,-19.531,80.566,0.000,0
1639023405.177,-160.156,-21.973,-19.531,62.012,0.000,0
1639023405.181,-215.332,-31.738,-20.996,-49.805,0.000,0
1639023405.185,-81.055,-29.297,-17.090,-100.098,0.000,0
1639023405.189,64.453,-13.672,-14.648,-34.668,0.000,0
1639023405.193,33.203,-11.230,-14.160,62.012,0.000,0
1639023405.197,-143.555,-16.602,-16.113,60.059,0.000,0
1639023405.201,-239.258,-24.414,-19.531,-44.434,0.000,0
1639023405.205,-119.141,-25.391,-21.484,-118.652,0.000,0
1639023405.209,53.223,-20.020,-19.531,-56.641,0.000,0
1639023405.212,49.316,-21.484,-15.137,67.383,0.000,0
1639023405.216,-117.188,-26.367,-23.926,94.727,0.000,0
1639023405.220,-230.469,-26.855,-32.715,-14.160,0.000,0
1639023405.224,-128.906,-26.855,-27.344,-109.375,0.000,0
1639023405.228,40.039,-27.832,-24.902,-70.801,0.000,0
1639023405.232,60.547,-24.414,-25.879,42.480,0.000,0
1639023405.235,-106.934,-22.949,-20.508,84.961,0.000,0
1639023405.240,-252.930,-27.832,-30.273,-6.836,0.000,0
1639023405.243,-164.551,-35.645,-40.527,-110.840,0.000,0
1639023405.247,18.555,-30.273,-32.715,-74.219,0.000,0
1639023405.251,68.359,-17.090,-24.414,29.785,0.000,0
1639023405.255,-84.961,-15.625,-20.996,79.590,0.000,0
1639023405.259,-224.121,-21.484,-27.344,21.973,0.000,0
1639023405.263,-166.504,-22.461,-28.809,-88.867,0.000,0
1639023405.266,2.930,-17.090,-21.484,-96.680,0.000,0
1639023405.270,63.965,-17.578,-25.391,14.648,0.000,0
1639023405.274,-72.754,-20.020,-24.414,77.148,0.000,0
1639023405.278,-220.215,-17.578,-20.020,7.324,0.000,0
1639023405.282,-193.359,-19.531,-20.020,-93.262,0.000,0
1639023405.286,-7.812,-17.578,-16.602,-97.168,0.000,0
1639023405.290,78.613,-16.602,-19.531,-5.859,0.000,0
1639023405.294,-44.434,-19.531,-21.973,69.336,0.000,0
1639023405.298,-205.566,-21.973,-23.926,37.109,0.000,0
1639023405.302,-211.426,-24.902,-25.879,-73.730,0.000,0
1639023405.306,-41.504,-21.973,-24.414,-101.562,0.000,0
1639023405.309,69.824,-19.043,-28.809,-14.160,0.000,0
1639023405.313,-26.367,-17.090,-22.949,65.430,0.000,0
1639023405.317,-195.312,-17.578,-24.902,21.484,0.000,0
1639023405.321,-225.586,-27.344,-34.180,-81.543,0.000,0
1639023405.325,-65.918,-29.297,-30.273,-121.094,0.000,0
1639023405.329,56.641,-16.602,-22.949,-40.527,0.000,0
1639023405.334,-6.348,-18.066,-17.578,63.477,0.000,0
1639023405.337,-169.922,-21.484,-20.508,44.922,0.000,0
1639023405.341,-234.375,-20.996,-21.973,-69.336,0.000,0
1639023405.345,-86.914,-21.484,-24.414,-123.047,0.000,0
1639023405.349,65.918,-23.926,-22.949,-39.062,0.000,0
1639023405.353,19.043,-25.391,-22.461,59.570,0.000,0
1639023405.357,-146.973,-26.367,-27.344,59.082,0.000,0
1639023405.361,-218.262,-26.855,-31.738,-45.410,0.000,0
1639023405.364,-100.098,-25.879,-31.738,-99.609,0.000,0
1639023405.368,53.711,-25.879,-28.809,-36.133,0.000,0
1639023405.372,32.715,-17.090,-21.484,59.570,0.000,0
1639023405.376,-135.742,-16.113,-19.043,73.242,0.000,0
1639023405.380,-229.492,-23.438,-28.320,-35.156,0.000,0
1639023405.384,-108.887,-26.367,-35.645,-113.770,0.000,0
1639023405.388,50.293,-28.809,-28.320,-68.359,0.000,0
1639023405.392,47.363,-27.832,-24.902,36.621,0.000,0
1639023405.396,-101.562,-24.414,-23.438,66.406,0.000,0
1639023405.400,-215.820,-22.461,-25.879,-11.719,0.000,0
1639023405.403,-146.484,-24.902,-36.621,-101.074,0.000,0
1639023405.407,21.484,-22.949,-32.715,-84.473,0.000,0
1639023405.411,52.246,-12.207,-24.902,23.926,0.000,0
1639023405.415,-95.703,-13.184,-26.367,67.871,0.000,0
1639023405.419,-217.773,-18.066,-28.809,-6.348,0.000,0
1639023405.423,-152.832,-20.996,-35.645,-83.008,0.000,0
1639023405.427,19.531,-22.461,-37.109,-66.406,0.000,0
1639023405.431,78.125,-9.277,-22.461,26.855,0.000,0
1639023405.435,-60.547,-7.324,-24.902,71.289,0.000,0
1639023405.439,-209.961,-17.578,-31.738,7.324,0.000,0
1639023405.442,-157.715,-17.578,-30.762,-92.285,0.000,0
1639023405.446,7.324,-13.184,-33.203,-97.168,0.000,0
1639023405.450,84.961,-14.648,-34.668,-1.465,0.000,0
1639023405.454,-36.621,-26.855,-34.668,86.914,0.000,0
1639023405.458,-210.938,-30.762,-32.715,35.156,0.000,0
1639023405.462,-191.406,-24.414,-28.320,-98.145,0.000,0
1639023405.466,-20.508,-21.973,-26.855,-100.098,0.000,0
1639023405.469,77.148,-17.578,-22.949,0.977,0.000,0
1639023405.474,-17.090,-17.090,-20.996,66.406,0.000,0
1639023405.478,-188.965,-24.902,-26.367,12.695,0.000,0
1639023405.481,-211.426,-26.855,-28.320,-88.867,0.000,0
1639023405.485,-39.551,-26.855,-27.344,-106.934,0.000,0
1639023405.489,81.543,-27.832,-21.484,-18.555,0.000,0
1639023405.493,-4.395,-24.414,-20.020,73.730,0.000,0
1639023405.497,-172.852,-22.461,-24.414,52.246,0.000,2
1639023405.501,-192.871,-28.320,-31.250,-49.805,0.000,0
1639023405.504,-56.641,-29.297,-33.203,-104.004,0.000,0
1639023405.508,65.918,-21.484,-23.926,-33.203,0.000,0
1639023405.512,28.809,-22.461,-22.461,71.289,0.000,0
1639023405.516,-147.949,-27.344,-26.855,62.988,0.000,0
1639023405.520,-227.539,-28.809,-30.762,-51.758,0.000,0
1639023405.524,-84.961,-28.320,-32.715,-111.328,0.000,0
1639023405.528,86.914,-24.902,-28.809,-37.109,0.000,0
1639023405.532,58.594,-18.066,-19.531,62.500,0.000,0
1639023405.536,-128.906,-18.066,-20.020,69.824,0.000,0
1639023405.540,-219.238,-26.855,-26.855,-15.137,0.000,0
1639023405.543,-101.562,-34.668,-31.250,-86.914,0.000,0
1639023405.547,64.453,-38.086,-25.391,-46.875,0.000,0
1639023405.551,63.477,-29.297,-18.066,47.852,0.000,0
1639023405.555,-100.586,-25.391,-21.973,77.637,0.000,0
1639023405.559,-215.332,-30.273,-28.320,-11.719,0.000,0
1639023405.563,-134.766,-32.227,-31.250,-115.723,0.000,0
1639023405.567,47.852,-26.367,-24.902,-71.777,0.000,0
1639023405.571,87.891,-25.879,-17.578,46.875,0.000,0
1639023405.575,-64.453,-26.855,-17.578,70.801,0.000,0
1639023405.578,-213.379,-27.832,-23.926,-3.906,0.000,0
1639023405.582,-145.996,-30.762,-27.832,-83.984,0.000,0
1639023405.586,54.688,-33.691,-28.809,-67.383,0.000,0
1639023405.590,112.305,-38.574,-22.949,50.781,0.000,0
1639023405.594,-40.039,-32.227,-16.113,101.074,0.000,0
1639023405.598,-193.359,-26.367,-17.578,13.672,0.000,0
1639023405.602,-156.738,-33.691,-26.855,-89.355,0.000,0
1639023405.605,14.648,-32.715,-24.414,-77.637,0.000,0
1639023405.609,97.656,-27.832,-10.742,14.648,0.000,0
1639023405.613,-25.879,-30.762,-18.066,67.383,0.000,0
1639023405.617,-202.148,-41.504,-31.738,23.926,0.000,0
1639023405.621,-186.523,-44.922,-34.668,-84.961,0.000,0
1639023405.625,-7.812,-32.715,-32.715,-96.191,0.000,0
1639023405.629,91.309,-27.344,-23.438,4.883,0.000,0
1639023405.633,0.000,-30.762,-27.344,86.426,0.000,0
1639023405.636,-170.410,-33.203,-31.738,53.711,0.000,0
1639023405.640,-210.449,-32.227,-30.762,-67.871,0.000,0
1639023405.644,-44.434,-32.227,-28.809,-94.238,0.000,0
1639023405.648,98.633,-28.809,-20.020,-0.488,0.000,0
1639023405.652,10.742,-31.250,-20.020,80.566,0.000,0
1639023405.656,-160.156,-34.180,-20.996,43.457,0.000,0
1639023405.660,-195.312,-37.109,-27.344,-64.941,0.000,0
1639023405.664,-65.430,-37.598,-32.227,-111.328,0.000,0
1639023405.668,82.520,-29.297,-25.391,-35.156,0.000,0
1639023405.672,42.480,-29.297,-16.602,70.312,0.000,0
1639023405.676,-136.719,-38.574,-21.484,64.453,0.000,0
1639023405.680,-210.449,-47.852,-29.785,-35.156,0.000,0
1639023405.683,-81.055,-48.340,-26.367,-96.191,0.000,0
1639023405.687,73.730,-41.992,-17.090,-35.645,0.000,0
1639023405.691,48.340,-36.621,-15.137,70.801,0.000,0
1639023405.695,-125.977,-34.668,-20.508,83.496,0.000,0
1639023405.699,-222.168,-26.367,-19.043,-26.855,0.000,0
1639023405.703,-93.750,-23.926,-17.090,-104.004,0.000,0
1639023405.707,64.941,-25.391,-13.184,-49.805,0.000,0
1639023405.711,52.246,-24.414,-17.090,40.527,0.000,0
1639023405.715,-104.980,-29.785,-21.484,62.500,0.000,0
1639023405.719,-212.402,-34.668,-23.438,-12.695,0.000,0
1639023405.722,-105.957,-36.133,-26.855,-97.168,0.000,0
1639023405.726,63.965,-30.762,-23.438,-60.059,0.000,0
1639023405.730,83.008,-23.438,-18.066,50.293,0.000,0
1639023405.734,-71.289,-28.809,-23.438,70.801,0.000,0
1639023405.738,-205.078,-42.480,-35.156,-3.418,0.000,0
1639023405.742,-133.789,-47.852,-40.039,-90.820,0.000,0
1639023405.746,34.668,-32.715,-32.715,-94.238,0.000,0
1639023405.749,85.938,-25.879,-23.438,21.973,0.000,0
1639023405.754,-43.457,-29.785,-22.949,89.844,0.000,0
1639023405.758,-193.359,-31.738,-32.715,16.602,0.000,0
1639023405.762,-155.762,-27.344,-33.691,-86.914,0.000,0
1639023405.765,28.320,-18.555,-24.902,-81.055,0.000,0
1639023405.769,95.703,-15.137,-20.020,20.996,0.000,0
1639023405.773,-36.133,-16.602,-25.391,90.820,0.000,0
1639023405.777,-180.664,-20.508,-31.250,36.621,0.000,0
1639023405.781,-164.062,-26.367,-30.762,-62.988,0.000,0
1639023405.785,7.324,-29.297,-27.832,-58.105,0.000,0
1639023405.788,105.957,-25.391,-20.020,19.043,0.000,0
1639023405.792,-6.348,-18.555,-16.602,77.637,0.000,0
1639023405.796,-165.527,-23.438,-19.531,51.758,0.000,0
1639023405.801,-169.922,-29.297,-25.391,-41.504,0.000,0
1639023405.804,-16.602,-26.367,-27.344,-89.844,0.000,0
1639023405.808,93.750,-24.414,-21.484,-11.719,0.000,0
1639023405.812,16.602,-21.484,-14.160,97.656,0.000,0
1639023405.816,-153.809,-23.926,-14.648,69.824,0.000,0
1639023405.820,-193.359,-27.832,-23.438,-42.969,0.000,0
1639023405.824,-43.945,-26.367,-26.367,-85.938,0.000,0
1639023405.828,91.309,-27.832,-26.855,0.488,0.000,0
1639023405.831,38.086,-27.344,-25.391,89.844,0.000,0
1639023405.835,-137.695,-22.461,-23.438,57.129,0.000,0
1639023405.839,-200.684,-20.996,-28.809,-35.156,0.000,0
1639023405.843,-70.801,-28.320,-27.344,-93.262,0.000,0
1639023405.847,73.242,-34.668,-26.367,-38.574,0.000,0
1639023405.851,47.852,-35.645,-29.785,56.641,0.000,0
1639023405.855,-132.324,-34.668,-29.297,69.824,0.000,0
1639023405.859,-228.027,-36.621,-36.133,-27.832,0.000,0
1639023405.863,-93.262,-34.668,-37.598,-102.539,0.000,0
1639023405.867,74.707,-32.227,-33.203,-42.969,0.000,0
1639023405.870,62.988,-27.832,-25.391,71.289,0.000,0
1639023405.874,-106.445,-27.832,-25.391,104.980,0.000,0
1639023405.878,-220.215,-34.668,-32.227,-11.719,0.000,0
1639023405.882,-114.746,-38.086,-30.762,-114.258,0.000,0
1639023405.886,68.848,-31.738,-30.273,-65.918,0.000,0
1639023405.890,91.309,-24.414,-28.320,51.270,0.000,0
1639023405.894,-87.891,-27.344,-28.809,79.590,0.000,0
1639023405.898,-217.773,-30.762,-30.273,2.930,0.000,0
1639023405.902,-128.418,-35.156,-30.762,-88.379,0.000,0
1639023405.906,41.016,-29.785,-28.809,-72.266,0.000,0
1639023405.910,87.402,-22.949,-24.902,35.645,0.000,0
1639023405.914,-44.922,-27.344,-25.391,96.191,0.000,0
1639023405.917,-176.758,-30.762,-29.297,37.598,0.000,0
1639023405.921,-134.277,-34.180,-31.250,-73.730,0.000,0
1639023405.925,33.691,-30.762,-25.391,-85.938,0.000,0
1639023405.929,110.840,-22.949,-20.508,20.996,0.000,0
1639023405.933,-21.973,-21.484,-18.066,89.844,0.000,0
1639023405.937,-177.734,-22.949,-20.996,26.855,0.000,0
1639023405.941,-162.109,-22.461,-23.438,-90.332,0.000,0
1639023405.945,11.230,-23.926,-24.414,-89.355,0.000,0
1639023405.949,104.492,-26.855,-25.879,8.789,0.000,0
1639023405.953,-14.160,-26.367,-20.996,72.754,0.000,0
1639023405.957,-171.387,-29.297,-24.414,40.039,0.000,0
1639023405.961,-166.992,-35.645,-35.645,-72.754,0.000,0
1639023405.964,-9.766,-36.133,-32.227,-103.027,0.000,0
1639023405.968,111.328,-23.926,-22.949,-8.301,0.000,0
1639023405.972,35.645,-16.113,-20.020,64.941,0.000,0
1639023405.976,-136.230,-26.367,-24.902,47.363,0.000,0
1639023405.980,-186.523,-34.180,-32.715,-52.734,0.000,0
1639023405.984,-60.059,-27.832,-30.762,-119.141,0.000,0
1639023405.988,85.449,-19.531,-23.438,-37.598,0.000,0
1639023405.992,44.434,-21.484,-20.996,85.938,0.000,0
1639023405.996,-125.977,-28.320,-25.879,80.566,0.000,0
1639023405.999,-198.730,-32.715,-33.203,-46.387,0.000,0
1639023406.003,-61.523,-31.738,-35.645,-101.074,0.000,0
1639023406.007,93.750,-29.785,-33.691,-17.090,0.000,0
1639023406.011,65.430,-24.902,-26.367,82.031,0.000,0
1639023406.015,-109.375,-23.438,-23.926,70.312,0.000,0
1639023406.019,-199.219,-30.762,-29.297,-37.109,0.000,0
1639023406.022,-71.777,-39.062,-33.691,-92.773,0.000,0
1639023406.026,89.844,-38.086,-34.180,-38.574,0.000,0
1639023406.030,74.219,-27.344,-27.832,47.852,0.000,0
1639023406.035,-93.750,-30.273,-32.227,72.754,0.000,0
1639023406.039,-194.824,-36.621,-41.992,-18.066,0.000,0
1639023406.042,-98.145,-35.156,-43.945,-106.934,0.000,0
1639023406.046,70.312,-34.180,-46.387,-67.383,0.000,0
1639023406.050,90.820,-31.250,-40.039,44.922,0.000,0
1639023406.054,-64.941,-33.691,-35.645,87.402,0.000,0
1639023406.058,-181.152,-41.504,-35.645,-3.418,0.000,0
1639023406.062,-103.027,-37.598,-31.250,-98.145,0.000,0
1639023406.065,59.082,-32.227,-33.203,-66.406,0.000,0
1639023406.069,102.539,-36.621,-34.180,38.086,0.000,0
1639023406.073,-44.434,-33.203,-33.691,78.125,0.000,0
1639023406.077,-191.406,-34.668,-35.645,3.906,0.000,0
1639023406.082,-137.695,-41.992,-36.133,-74.707,0.000,0
1639023406.085,42.969,-34.180,-34.668,-71.777,0.000,0
1639023406.089,110.352,-25.391,-30.762,19.043,0.000,0
1639023406.093,-21.484,-32.715,-32.715,93.750,0.000,0
1639023406.097,-173.340,-43.945,-44.434,33.691,0.000,0
1639023406.101,-145.020,-42.969,-45.410,-70.801,0.000,0
1639023406.105,23.438,-33.691,-35.645,-87.891,0.000,0
1639023406.108,112.305,-28.320,-25.391,14.648,0.000,0
1639023406.112,7.324,-33.691,-32.227,110.840,0.000,0
1639023406.116,-163.086,-40.039,-42.480,63.965,0.000,0
1639023406.120,-159.668,-30.762,-36.621,-56.641,0.000,0
1639023406.124,-5.859,-24.902,-35.645,-88.379,0.000,0
1639023406.128,90.820,-28.809,-33.691,-2.441,0.000,0
1639023406.132,29.297,-24.902,-28.809,85.449,0.000,0
1639023406.136,-143.555,-25.391,-31.738,50.293,0.000,0
1639023406.140,-195.312,-37.598,-38.086,-62.988,0.000,0
1639023406.144,-37.109,-38.086,-39.062,-107.910,0.000,0
1639023406.148,93.750,-33.203,-34.668,-31.250,0.000,0
1639023406.151,20.996,-36.621,-30.762,75.195,0.000,0
1639023406.155,-155.273,-42.969,-37.598,52.246,0.000,0
1639023406.159,-205.566,-47.363,-42.969,-51.758,0.000,0
1639023406.163,-62.012,-44.922,-37.598,-103.516,0.000,0
1639023406.167,75.684,-41.016,-31.250,-42.480,0.000,0
1639023406.171,45.410,-40.527,-25.391,71.777,0.000,0
1639023406.175,-125.977,-39.062,-29.297,64.941,0.000,0
1639023406.179,-208.984,-41.504,-37.598,-55.176,0.000,0
1639023406.183,-88.867,-37.598,-33.691,-119.629,0.000,0
1639023406.187,65.918,-33.691,-29.297,-53.223,0.000,0
1639023406.191,58.594,-30.762,-30.762,62.012,0.000,0
1639023406.194,-110.840,-28.809,-35.645,84.473,0.000,0
1639023406.198,-200.684,-35.156,-37.598,-12.207,0.000,0
1639023406.202,-91.309,-40.039,-41.992,-88.867,0.000,0
1639023406.206,78.125,-39.551,-38.574,-50.781,0.000,0
1639023406.210,88.379,-32.715,-29.785,38.574,0.000,0
1639023406.214,-70.312,-33.691,-28.320,80.078,0.000,0
1639023406.217,-192.383,-35.645,-33.203,1.465,0.000,0
1639023406.222,-123.047,-35.156,-34.180,-92.285,0.000,0
1639023406.226,40.527,-34.180,-32.715,-71.289,0.000,0
1639023406.230,87.402,-34.668,-36.621,48.828,0.000,0
1639023406.233,-56.152,-40.527,-40.527,93.750,0.000,0
1639023406.237,-199.219,-42.969,-41.992,5.371,0.000,0
1639023406.241,-132.324,-40.039,-41.016,-88.379,0.000,0
1639023406.245,42.969,-42.480,-37.109,-78.125,0.000,0
1639023406.249,95.215,-46.875,-33.203,31.738,0.000,0
1639023406.253,-37.109,-39.551,-25.879,94.238,0.000,0
1639023406.256,-191.895,-33.691,-30.273,18.066,0.000,0
1639023406.260,-170.898,-45.410,-42.480,-91.797,0.000,0
1639023406.264,-10.254,-45.898,-41.504,-89.844,0.000,0
1639023406.269,84.961,-41.016,-39.551,12.207,0.000,0
1639023406.272,-25.879,-40.039,-37.109,75.195,0.000,0
1639023406.276,-188.965,-41.016,-38.574,26.367,0.000,0
1639023406.280,-187.012,-46.875,-47.852,-88.867,0.000,0
1639023406.284,-22.949,-43.457,-46.387,-103.516,0.000,0
1639023406.288,93.750,-38.574,-41.992,5.859,0.000,0
1639023406.292,-5.371,-39.551,-42.480,84.961,0.000,0
1639023406.295,-171.387,-43.457,-42.480,48.340,0.000,1
1639023406.299,-195.312,-40.527,-41.992,-68.359,0.000,0
1639023406.303,-45.898,-42.969,-44.922,-96.191,0.000,0
1639023406.307,88.867,-41.992,-44.434,-10.742,0.000,0
1639023406.311,18.555,-35.645,-36.621,71.289,0.000,0
1639023406.315,-160.156,-34.668,-35.156,54.688,0.000,0
1639023406.319,-214.844,-40.527,-45.410,-46.387,0.000,0
1639023406.323,-63.965,-42.969,-50.293,-104.004,0.000,0
1639023406.327,86.914,-37.109,-45.410,-27.344,0.000,0
1639023406.331,51.270,-35.645,-40.527,83.496,0.000,0
1639023406.334,-125.000,-36.133,-40.527,68.848,0.000,0
1639023406.338,-199.219,-38.086,-52.246,-34.180,0.000,0
1639023406.342,-75.684,-33.203,-52.734,-107.422,0.000,0
1639023406.346,81.543,-18.066,-38.574,-50.293,0.000,0
1639023406.350,89.355,-9.766,-32.227,63.965,0.000,0
1639023406.354,-92.285,-14.160,-37.598,69.824,0.000,0
1639023406.357,-222.656,-18.066,-38.574,-24.902,0.000,0
1639023406.362,-101.562,-12.207,-34.180,-102.051,0.000,0
1639023406.366,80.566,-6.836,-33.691,-54.688,0.000,0
1639023406.369,83.008,-10.742,-30.762,55.664,0.000,0
1639023406.373,-74.219,-10.742,-27.832,82.031,0.000,0
1639023406.377,-194.824,-12.207,-33.691,-6.348,0.000,0
1639023406.381,-110.840,-23.438,-42.969,-85.938,0.000,0
1639023406.385,61.035,-30.273,-46.387,-47.363,0.000,0
1639023406.389,91.309,-22.461,-38.574,47.363,0.000,0
1639023406.392,-62.500,-19.043,-34.668,85.938,0.000,0
1639023406.396,-210.938,-23.438,-44.434,19.043,0.000,0
1639023406.400,-152.344,-21.973,-45.410,-78.125,0.000,0
1639023406.404,33.203,-18.555,-38.086,-77.148,0.000,0
1639023406.409,90.820,-17.090,-33.203,21.484,0.000,0
1639023406.412,-39.551,-20.508,-29.785,78.613,0.000,0
1639023406.416,-191.406,-20.996,-31.738,22.461,0.000,0
1639023406.420,-160.156,-18.066,-37.598,-69.824,0.000,0
1639023406.424,10.742,-12.207,-33.691,-75.684,0.000,0
1639023406.428,91.797,-11.719,-26.367,26.367,0.000,0
1639023406.432,-17.578,-17.578,-27.344,98.633,0.000,0
1639023406.436,-182.129,-11.719,-33.203,37.109,0.000,0
1639023406.439,-174.316,-11.230,-37.109,-73.730,0.000,0
1639023406.443,1.953,-19.531,-37.109,-66.406,0.000,0
1639023406.447,99.609,-16.113,-33.691,21.484,0.000,0
1639023406.451,-5.859,-15.625,-26.855,87.891,0.000,0
1639023406.455,-154.297,-24.902,-22.949,54.199,0.000,0
1639023406.459,-171.387,-28.320,-24.414,-58.594,0.000,0
1639023406.463,-27.344,-23.438,-27.832,-93.262,0.000,0
1639023406.467,101.074,-13.184,-21.973,-3.418,0.000,0
1639023406.471,30.273,-10.254,-19.043,100.586,0.000,0
1639023406.475,-143.555,-16.113,-25.391,93.750,0.000,0
1639023406.479,-196.777,-20.508,-31.250,-27.344,0.000,0
1639023406.482,-53.711,-18.066,-29.785,-97.656,0.000,0
1639023406.486,100.098,-14.160,-24.414,-6.836,0.000,0
1639023406.490,57.129,-17.578,-23.438,91.797,0.000,0
1639023406.494,-128.418,-14.648,-27.832,69.824,0.000,0
1639023406.498,-190.430,-14.648,-32.227,-20.020,0.000,0
1639023406.502,-47.852,-20.996,-32.227,-75.195,0.000,0
1639023406.506,83.984,-20.020,-31.738,-22.949,0.000,0
1639023406.510,50.781,-23.926,-29.297,82.031,0.000,0
1639023406.514,-108.398,-25.879,-27.832,98.145,0.000,0
1639023406.518,-193.359,-23.926,-33.203,-5.859,0.000,0
1639023406.522,-79.590,-29.297,-41.016,-95.215,0.000,0
1639023406.525,65.918,-29.785,-41.016,-59.570,0.000,0
1639023406.529,70.801,-25.879,-36.133,55.176,0.000,0
1639023406.533,-79.102,-26.855,-32.715,97.656,0.000,0
1639023406.537,-197.266,-25.879,-31.250,-1.465,0.000,0
1639023406.541,-104.980,-27.832,-37.109,-99.609,0.000,0
1639023406.545,75.195,-31.250,-37.109,-62.500,0.000,0
1639023406.549,95.215,-30.273,-30.273,47.852,0.000,0
1639023406.553,-59.570,-24.902,-26.855,86.426,0.000,0
1639023406.557,-189.941,-25.879,-35.156,3.418,0.000,0
1639023406.561,-130.371,-31.738,-47.852,-98.145,0.000,0
1639023406.564,49.805,-28.320,-43.945,-79.590,0.000,0
1639023406.568,101.562,-21.973,-40.039,30.762,0.000,0
1639023406.572,-44.434,-23.438,-37.109,88.867,0.000,0
1639023406.576,-184.082,-28.320,-34.180,33.691,0.000,0
1639023406.580,-152.832,-26.367,-36.133,-64.941,0.000,0
1639023406.584,18.555,-17.090,-26.367,-88.379,0.000,0
1639023406.588,108.887,-11.719,-20.020,16.113,0.000,0
1639023406.591,-20.020,-13.672,-25.391,100.098,0.000,0
1639023406.596,-178.711,-17.090,-32.715,37.109,0.000,0
1639023406.600,-154.785,-19.043,-38.574,-75.684,0.000,0
1639023406.604,16.602,-16.602,-30.762,-63.965,0.000,0
1639023406.607,114.258,-15.137,-23.438,21.973,0.000,0
1639023406.611,9.277,-18.555,-24.902,73.730,0.000,0
1639023406.615,-155.762,-21.973,-24.902,55.176,0.000,0
1639023406.619,-168.945,-27.832,-31.738,-47.363,0.000,0
1639023406.623,-12.207,-36.133,-42.480,-87.402,0.000,0
1639023406.627,103.027,-28.809,-38.574,-3.906,0.000,0
1639023406.630,21.973,-16.113,-29.785,80.078,0.000,0
1639023406.634,-147.461,-22.461,-32.715,62.500,0.000,0
1639023406.638,-187.012,-27.344,-34.180,-41.992,0.000,0
1639023406.643,-27.832,-21.973,-27.344,-92.773,0.000,0
1639023406.646,105.469,-19.531,-21.973,-13.184,0.000,0
1639023406.650,55.664,-19.531,-17.090,92.773,0.000,0
1639023406.654,-119.629,-20.508,-21.973,87.891,0.000,0
1639023406.658,-203.125,-27.832,-31.250,-22.461,0.000,0
1639023406.662,-65.918,-31.250,-37.598,-88.379,0.000,0
1639023406.666,98.633,-31.250,-36.621,-20.020,0.000,0
1639023406.669,74.219,-29.297,-31.250,82.520,0.000,0
1639023406.673,-109.863,-24.414,-36.133,82.520,0.000,0
1639023406.677,-200.195,-33.203,-42.480,-16.602,0.000,0
1639023406.681,-92.285,-34.180,-43.945,-92.773,0.000,0
1639023406.685,69.824,-25.391,-39.551,-46.387,0.000,0
1639023406.689,71.777,-24.414,-32.227,62.500,0.000,0
1639023406.693,-102.539,-33.691,-32.715,85.938,0.000,0
1639023406.697,-210.938,-37.109,-36.133,-2.441,0.000,0
1639023406.701,-113.281,-30.273,-38.574,-99.121,0.000,0
1639023406.705,57.617,-25.879,-36.133,-76.660,0.000,0
1639023406.708,91.309,-27.832,-40.039,38.086,0.000,0
1639023406.712,-61.523,-36.133,-45.898,95.703,0.000,0
1639023406.716,-197.754,-37.109,-48.340,0.977,0.000,0
1639023406.720,-129.395,-31.250,-50.781,-104.980,0.000,0
1639023406.724,39.551,-28.809,-48.340,-64.453,0.000,0
1639023406.728,92.773,-26.367,-41.016,48.340,0.000,0
1639023406.732,-45.410,-26.367,-41.992,97.656,0.000,0
1639023406.736,-189.941,-27.832,-50.293,19.531,0.000,0
1639023406.740,-141.113,-35.156,-50.781,-83.984,0.000,0
1639023406.743,26.367,-33.691,-43.945,-78.125,0.000,0
1639023406.747,101.074,-27.832,-40.527,23.438,0.000,0
1639023406.751,-21.484,-28.809,-40.527,82.031,0.000,0
1639023406.755,-173.828,-38.574,-48.828,36.133,0.000,0
1639023406.759,-160.645,-42.480,-57.129,-60.059,0.000,0
1639023406.763,2.930,-31.250,-41.016,-94.727,0.000,0
1639023406.767,115.234,-22.949,-27.832,1.953,0.000,0
1639023406.770,20.996,-25.391,-35.645,87.891,0.000,0
1639023406.774,-150.879,-29.785,-35.645,53.711,0.000,0
1639023406.778,-167.480,-27.832,-38.086,-51.270,0.000,0
1639023406.783,-8.789,-33.203,-41.504,-94.727,0.000,0
1639023406.787,111.328,-35.645,-36.621,-15.137,0.000,0
1639023406.790,22.949,-32.715,-32.715,74.707,0.000,0
1639023406.794,-157.227,-40.039,-33.691,57.129,0.000,0
1639023406.798,-185.547,-47.852,-42.480,-47.852,0.000,0
1639023406.802,-31.738,-53.711,-50.781,-103.516,0.000,0
1639023406.806,93.262,-53.711,-46.875,-35.156,0.000,0
1639023406.810,28.320,-46.875,-40.527,72.266,0.000,0
1639023406.814,-144.531,-48.828,-41.016,65.430,0.000,0
1639023406.817,-211.426,-57.617,-47.852,-38.086,0.000,0
1639023406.821,-85.449,-53.711,-45.410,-107.910,0.000,0
1639023406.825,80.566,-44.922,-40.527,-43.457,0.000,0
1639023406.830,59.082,-41.992,-36.133,75.195,0.000,0
1639023406.833,-120.605,-45.898,-30.762,67.383,0.000,0
1639023406.837,-215.820,-51.758,-32.715,-47.852,0.000,0
1639023406.841,-94.238,-50.293,-36.621,-114.746,0.000,0
1639023406.845,75.684,-50.781,-39.062,-56.641,0.000,0
1639023406.849,74.707,-47.363,-39.062,56.641,0.000,0
1639023406.853,-91.797,-47.852,-40.039,77.637,0.000,0
1639023406.857,-220.215,-54.688,-45.898,-21.484,0.000,0
1639023406.860,-116.699,-55.176,-54.688,-90.820,0.000,0
1639023406.864,70.312,-47.363,-48.828,-47.363,0.000,0
1639023406.868,90.332,-37.109,-33.691,43.945,0.000,0
1639023406.872,-64.941,-39.062,-33.691,77.148,0.000,0
1639023406.876,-204.590,-44.922,-44.434,-6.348,0.000,0
1639023406.880,-126.465,-43.945,-49.316,-103.516,0.000,0
1639023406.884,53.711,-35.156,-44.922,-82.031,0.000,0
1639023406.888,95.703,-32.227,-40.527,31.738,0.000,0
1639023406.892,-48.828,-41.504,-46.875,90.820,0.000,0
1639023406.896,-196.777,-41.016,-48.340,26.855,0.000,0
1639023406.900,-145.996,-39.551,-46.387,-81.543,0.000,0
1639023406.903,21.973,-46.387,-52.246,-94.238,0.000,0
1639023406.907,103.516,-44.922,-47.363,17.090,0.000,0
1639023406.911,-29.785,-37.109,-42.969,76.172,0.000,0
1639023406.915,-195.801,-40.527,-47.852,12.207,0.000,0
1639023406.919,-171.387,-45.410,-47.363,-77.637,0.000,0
1639023406.923,-2.441,-41.016,-43.457,-89.844,0.000,0
1639023406.927,102.051,-33.691,-36.621,-1.953,0.000,0
1639023406.931,-13.672,-27.832,-37.109,75.195,0.000,0
1639023406.935,-179.688,-35.156,-47.363,30.273,0.000,0
1639023406.939,-192.871,-41.992,-45.410,-79.102,0.000,0
1639023406.942,-31.738,-36.621,-40.039,-98.633,0.000,0
1639023406.946,91.797,-32.227,-38.574,-2.930,0.000,0
1639023406.950,8.301,-35.156,-42.969,92.773,0.000,0
1639023406.954,-164.062,-39.551,-46.875,59.082,0.000,0
1639023406.958,-207.520,-37.109,-44.922,-62.500,0.000,0
1639023406.962,-51.270,-35.645,-43.945,-101.562,0.000,0
1639023406.966,88.379,-35.645,-40.039,-18.066,0.000,0
1639023406.970,29.297,-31.250,-37.598,95.215,0.000,0
1639023406.974,-139.648,-32.227,-43.945,70.312,0.000,0
1639023406.978,-193.848,-34.668,-42.969,-52.246,0.000,0
1639023406.982,-56.641,-32.715,-39.551,-100.098,0.000,0
1639023406.985,83.496,-26.367,-41.016,-24.902,0.000,0
1639023406.989,50.293,-24.902,-41.992,82.031,0.000,0
1639023406.993,-113.281,-28.320,-43.457,81.055,0.000,0
1639023406.997,-191.406,-37.109,-49.805,-15.625,0.000,0
1639023407.001,-74.219,-37.598,-49.805,-102.051,0.000,0
1639023407.005,81.543,-27.344,-43.457,-59.082,0.000,0
1639023407.008,72.754,-27.344,-45.898,69.824,0.000,0
1639023407.012,-97.656,-32.227,-45.410,92.285,0.000,0
1639023407.017,-208.008,-34.180,-44.434,-11.230,0.000,0
1639023407.021,-107.422,-34.668,-45.410,-100.098,0.000,0
1639023407.024,70.312,-32.227,-43.945,-63.477,0.000,0
1639023407.028,82.031,-27.344,-44.922,40.527,0.000,0
1639023407.032,-79.590,-33.691,-47.363,72.266,0.000,0
1639023407.036,-189.941,-42.480,-53.711,-2.930,0.000,0
1639023407.040,-121.582,-41.992,-55.176,-80.566,0.000,0
1639023407.044,48.828,-33.691,-45.898,-48.828,0.000,1
1639023407.048,94.727,-23.438,-39.062,39.551,0.000,0
1639023407.051,-48.828,-27.344,-42.969,83.984,0.000,0
1639023407.055,-197.754,-36.621,-49.805,12.207,0.000,0
1639023407.059,-151.855,-38.086,-45.898,-95.703,0.000,0
1639023407.063,27.344,-39.551,-42.480,-81.543,0.000,0
1639023407.067,95.215,-45.410,-41.504,26.367,0.000,0
1639023407.071,-40.527,-58.105,-47.852,75.195,0.000,0
1639023407.075,-199.707,-66.406,-54.688,12.695,0.000,0
1639023407.079,-171.875,-60.059,-54.199,-84.473,0.000,0
1639023407.083,16.602,-61.035,-52.246,-83.496,0.000,0
1639023407.086,116.699,-62.500,-50.781,26.367,0.000,0
1639023407.090,-4.395,-55.664,-44.434,99.121,0.000,0
1639023407.094,-166.992,-57.129,-43.945,42.969,0.000,0
1639023407.098,-176.270,-63.965,-48.828,-69.824,0.000,0
1639023407.102,-22.461,-58.105,-45.898,-91.797,0.000,0
1639023407.106,96.191,-51.270,-38.086,0.488,0.000,0
1639023407.110,15.625,-52.734,-30.273,86.914,0.000,0
1639023407.114,-150.391,-56.152,-33.203,64.453,0.000,0
1639023407.118,-172.852,-57.617,-36.133,-27.832,0.000,0
1639023407.122,-24.902,-55.176,-30.273,-88.867,0.000,0
1639023407.125,113.281,-49.316,-30.273,-20.508,0.000,0
1639023407.129,45.898,-55.664,-36.133,94.238,0.000,0
1639023407.133,-138.672,-63.477,-37.109,78.125,0.000,0
1639023407.137,-195.312,-57.129,-35.645,-33.691,0.000,0
1639023407.141,-60.547,-54.199,-34.668,-90.332,0.000,0
1639023407.145,95.215,-58.594,-40.527,-15.137,0.000,0
1639023407.149,71.777,-52.246,-40.527,97.656,0.000,0
1639023407.152,-111.816,-40.039,-35.645,79.590,0.000,0
1639023407.157,-203.125,-41.992,-37.598,-30.762,0.000,0
1639023407.161,-69.824,-43.457,-34.180,-95.215,0.000,0
1639023407.165,88.379,-33.691,-33.203,-40.527,0.000,0
1639023407.168,76.172,-26.367,-31.738,61.523,0.000,0
1639023407.172,-90.332,-33.203,-32.227,85.449,0.000,0
1639023407.176,-196.289,-36.133,-38.086,-2.930,0.000,0
1639023407.180,-89.355,-34.668,-39.551,-88.867,0.000,0
1639023407.184,73.730,-37.598,-39.062,-54.199,0.000,0
1639023407.188,83.496,-29.785,-34.180,63.477,0.000,0
1639023407.192,-65.918,-28.809,-23.926,100.098,0.000,0
1639023407.195,-190.918,-31.250,-23.926,-5.859,0.000,0
1639023407.199,-118.652,-29.785,-35.156,-99.121,0.000,0
1639023407.204,58.105,-35.645,-36.621,-56.152,0.000,0
1639023407.208,98.633,-33.691,-31.738,55.664,0.000,0
1639023407.212,-47.363,-26.367,-26.367,93.262,0.000,0
1639023407.215,-191.406,-29.297,-27.344,15.137,0.000,0
1639023407.219,-137.695,-39.551,-37.598,-84.473,0.000,0
1639023407.223,42.480,-42.480,-42.480,-77.637,0.000,0
1639023407.227,107.422,-30.273,-29.297,26.855,0.000,0
1639023407.231,-30.762,-19.043,-21.973,85.449,0.000,0
1639023407.235,-185.059,-26.855,-38.574,28.809,0.000,0
1639023407.238,-164.551,-34.668,-44.434,-75.195,0.000,0
1639023407.242,0.488,-31.250,-45.898,-97.168,0.000,0
1639023407.246,95.215,-24.414,-44.434,7.324,0.000,0
1639023407.251,-12.207,-27.344,-36.621,86.914,0.000,0
1639023407.254,-166.504,-35.156,-37.598,36.133,0.000,0
1639023407.258,-170.410,-30.762,-41.992,-73.730,0.000,0
1639023407.262,-7.812,-24.902,-40.527,-92.285,0.000,0
1639023407.266,104.492,-23.926,-33.691,1.465,0.000,0
1639023407.270,7.812,-27.832,-34.180,82.031,0.000,0
1639023407.274,-167.969,-27.832,-40.039,45.410,0.000,0
1639023407.278,-191.895,-26.855,-46.387,-58.594,0.000,0
1639023407.281,-19.043,-32.227,-51.758,-87.402,0.000,0
1639023407.285,103.516,-23.438,-43.457,-17.578,0.000,0
1639023407.289,21.484,-11.230,-33.691,68.848,0.000,0
1639023407.293,-133.789,-16.602,-33.203,70.801,0.000,0
1639023407.297,-179.199,-22.461,-35.156,-31.738,0.000,0
1639023407.301,-52.246,-21.973,-36.621,-101.074,0.000,0
1639023407.305,88.379,-14.648,-36.621,-27.832,0.000,0
1639023407.309,54.688,-16.602,-35.645,79.590,0.000,0
1639023407.313,-116.699,-21.973,-36.621,83.496,0.000,0
1639023407.317,-200.195,-23.438,-40.527,-20.508,0.000,0
1639023407.321,-78.613,-21.973,-40.527,-94.727,0.000,0
1639023407.324,88.379,-18.555,-34.668,-20.508,0.000,0
1639023407.328,69.336,-22.949,-35.156,83.984,0.000,0
1639023407.332,-111.328,-21.484,-38.086,79.590,0.000,0
1639023407.336,-214.355,-25.391,-40.039,-9.277,0.000,0
1639023407.340,-106.445,-30.273,-37.598,-94.238,0.000,0
1639023407.344,76.172,-20.996,-32.715,-49.316,0.000,0
1639023407.348,82.031,-17.090,-31.738,45.898,0.000,0
1639023407.352,-75.195,-20.020,-29.297,75.195,0.000,0
1639023407.356,-185.547,-23.438,-30.762,4.883,0.000,0
1639023407.360,-116.699,-26.855,-34.668,-89.844,0.000,0
1639023407.364,55.176,-24.414,-33.203,-64.941,0.000,0
1639023407.367,98.633,-17.578,-29.785,42.480,0.000,0
1639023407.371,-47.852,-20.996,-34.668,92.773,0.000,0
1639023407.375,-193.359,-26.855,-35.645,11.719,0.000,0
1639023407.379,-146.484,-24.414,-39.062,-84.961,0.000,0
1639023407.383,27.832,-21.484,-42.969,-73.730,0.000,0
1639023407.387,101.562,-14.648,-34.668,30.762,0.000,0
1639023407.391,-21.484,-11.719,-28.320,98.633,0.000,0
1639023407.395,-169.922,-16.113,-34.180,38.086,0.000,0
1639023407.399,-145.508,-21.973,-46.387,-67.871,0.000,0
1639023407.403,14.648,-21.973,-49.316,-83.008,0.000,0
1639023407.406,94.727,-16.602,-48.828,16.602,0.000,0
1639023407.410,-12.207,-21.484,-46.387,98.633,0.000,0
1639023407.414,-166.992,-33.691,-47.852,42.480,0.000,0
1639023407.418,-167.969,-36.133,-53.711,-56.152,0.000,0
1639023407.422,-2.930,-22.461,-44.922,-74.219,0.000,0
1639023407.426,114.746,-13.672,-35.645,18.066,0.000,0
1639023407.430,31.738,-13.672,-30.273,103.027,0.000,0
1639023407.433,-145.508,-18.555,-32.227,44.922,0.000,0
1639023407.438,-176.270,-24.414,-41.992,-68.359,0.000,0
1639023407.442,-17.090,-23.926,-44.922,-88.867,0.000,0
1639023407.445,101.074,-23.926,-46.387,-12.695,0.000,0
1639023407.449,20.020,-24.414,-42.969,65.430,0.000,0
1639023407.453,-146.973,-22.949,-42.480,44.922,0.000,0
1639023407.457,-197.266,-25.391,-47.852,-55.664,0.000,0
1639023407.461,-46.387,-29.297,-47.363,-96.191,0.000,0
1639023407.465,102.051,-21.973,-42.480,-26.855,0.000,0
1639023407.469,52.734,-9.766,-32.715,62.500,0.000,0
1639023407.472,-118.652,-13.672,-38.086,62.988,0.000,0
1639023407.476,-190.918,-19.043,-43.945,-28.809,0.000,0
1639023407.480,-60.059,-14.648,-34.180,-94.727,0.000,0
1639023407.484,83.008,-15.625,-31.250,-53.223,0.000,0
1639023407.488,63.477,-18.066,-34.668,53.711,0.000,0
1639023407.492,-107.422,-15.625,-42.480,68.848,0.000,0
1639023407.496,-201.172,-20.996,-46.875,-22.949,0.000,0
1639023407.500,-92.285,-22.949,-45.410,-93.750,0.000,0
1639023407.504,62.988,-22.461,-41.992,-50.293,0.000,0
1639023407.507,73.242,-23.926,-38.086,52.734,0.000,0
1639023407.511,-78.125,-23.926,-40.039,76.172,0.000,0
1639023407.515,-185.547,-19.043,-41.504,-10.254,0.000,0
1639023407.519,-103.027,-23.438,-42.969,-84.473,0.000,0
1639023407.523,48.340,-28.809,-41.504,-51.270,0.000,0
1639023407.527,73.730,-23.438,-36.621,41.016,0.000,0
1639023407.531,-64.453,-16.602,-33.203,96.680,0.000,0
1639023407.535,-194.336,-18.066,-39.062,26.855,0.000,0
1639023407.539,-128.906,-21.973,-42.969,-83.496,0.000,0
1639023407.543,40.039,-21.484,-37.109,-68.848,0.000,0
1639023407.547,96.680,-20.996,-34.668,37.598,0.000,0
1639023407.551,-30.273,-19.531,-38.086,94.238,0.000,0
1639023407.554,-185.059,-21.484,-43.457,20.020,0.000,0
1639023407.558,-148.438,-23.438,-40.527,-88.379,0.000,0
1639023407.562,27.832,-21.973,-37.109,-86.914,0.000,0
1639023407.566,114.258,-20.508,-33.691,23.926,0.000,0
1639023407.570,-9.766,-20.020,-31.738,86.914,0.000,0
1639023407.574,-174.805,-23.926,-39.062,19.043,0.000,0
1639023407.578,-158.203,-27.832,-42.969,-76.172,0.000,0
1639023407.582,6.348,-27.832,-38.086,-89.355,0.000,0
1639023407.586,104.980,-24.902,-29.785,-2.930,0.000,0
1639023407.590,4.395,-22.461,-24.902,85.449,0.000,0
1639023407.594,-148.438,-24.902,-31.738,64.941,0.000,0
1639023407.597,-166.016,-31.250,-41.504,-53.223,0.000,0
1639023407.601,-26.855,-28.320,-41.504,-96.191,0.000,0
1639023407.605,97.168,-21.973,-31.738,-13.672,0.000,0
1639023407.609,38.086,-28.320,-32.715,90.332,0.000,0
1639023407.613,-137.695,-35.645,-44.922,66.895,0.000,0
1639023407.617,-200.195,-31.250,-45.898,-64.941,0.000,0
1639023407.621,-46.875,-32.715,-47.852,-115.234,0.000,0
1639023407.625,98.145,-30.273,-43.945,-36.133,0.000,0
1639023407.629,54.199,-20.020,-37.598,68.848,0.000,0
1639023407.633,-116.699,-20.996,-34.180,65.430,0.000,0
1639023407.637,-182.129,-28.320,-33.691,-31.250,0.000,0
1639023407.640,-43.457,-26.855,-37.109,-91.309,0.000,0
1639023407.644,103.516,-20.996,-32.227,-28.809,0.000,0
1639023407.648,79.102,-21.973,-27.344,71.289,0.000,0
1639023407.652,-108.887,-26.855,-33.203,73.730,0.000,0
1639023407.656,-199.219,-32.227,-39.551,-9.766,0.000,0
1639023407.660,-83.984,-29.297,-38.574,-99.121,0.000,0
1639023407.664,68.359,-21.484,-35.645,-75.195,0.000,0
1639023407.667,84.961,-19.531,-31.738,50.293,0.000,0
1639023407.672,-76.172,-17.578,-33.691,83.984,0.000,0
1639023407.676,-197.754,-21.484,-42.480,-2.930,0.000,0
1639023407.680,-113.281,-24.414,-43.945,-97.168,0.000,0
1639023407.683,41.016,-24.902,-41.504,-76.172,0.000,0
1639023407.687,74.707,-24.414,-40.527,46.875,0.000,0
1639023407.691,-68.359,-26.367,-44.922,98.145,0.000,0
1639023407.695,-199.707,-29.785,-49.316,-0.977,0.000,0
1639023407.699,-129.883,-32.715,-46.875,-90.820,0.000,0
1639023407.703,44.922,-32.227,-40.527,-52.246,0.000,0
1639023407.707,98.145,-19.043,-36.133,25.391,0.000,0
1639023407.710,-37.598,-21.484,-39.551,82.031,0.000,0
1639023407.714,-184.570,-29.297,-41.016,29.785,0.000,0
1639023407.719,-152.344,-28.320,-42.969,-84.961,0.000,0
1639023407.722,10.742,-23.438,-40.527,-92.285,0.000,0
1639023407.726,93.750,-26.367,-34.668,22.461,0.000,0
1639023407.730,-33.203,-36.621,-38.574,87.891,0.000,0
1639023407.734,-191.895,-36.621,-44.922,23.438,0.000,0
1639023407.738,-170.898,-36.133,-48.340,-63.965,0.000,0
1639023407.742,-1.953,-36.621,-49.316,-84.961,0.000,0
1639023407.746,100.586,-34.668,-43.457,9.277,0.000,0
1639023407.749,3.906,-22.461,-37.598,92.285,0.000,0
1639023407.753,-154.785,-19.531,-35.156,41.504,0.000,0
1639023407.757,-175.781,-28.809,-36.621,-61.035,0.000,0
1639023407.761,-32.227,-26.855,-43.945,-87.891,0.000,0
1639023407.765,98.145,-23.926,-41.992,-9.277,0.000,0
1639023407.769,41.504,-21.973,-37.109,84.961,0.000,0
1639023407.773,-134.277,-23.438,-43.945,72.754,0.000,0
1639023407.777,-186.035,-30.762,-46.875,-42.480,0.000,0
1639023407.781,-47.363,-28.809,-43.945,-94.727,0.000,0
1639023407.785,88.867,-23.926,-35.156,-21.973,0.000,0
1639023407.789,42.480,-28.320,-32.715,90.820,0.000,0
1639023407.792,-132.812,-34.668,-42.969,91.309,0.000,0
1639023407.796,-212.402,-32.227,-41.504,-36.621,0.000,0
1639023407.800,-79.102,-30.762,-40.039,-100.098,0.000,0
1639023407.804,71.289,-31.738,-37.109,-38.086,0.000,0
1639023407.808,47.363,-24.414,-31.738,67.871,0.000,0
1639023407.812,-116.211,-22.949,-36.621,75.195,0.000,0
1639023407.816,-214.844,-31.738,-41.504,-20.020,0.000,0
1639023407.820,-100.586,-35.645,-42.969,-92.773,0.000,0
1639023407.824,54.199,-31.738,-39.551,-52.734,0.000,0
1639023407.828,46.387,-24.902,-33.691,54.199,0.000,0
1639023407.831,-105.957,-23.438,-35.645,80.566,0.000,0
1639023407.835,-206.543,-33.691,-45.898,0.977,0.000,0
1639023407.839,-118.164,-34.668,-47.363,-93.750,0.000,0
1639023407.843,50.781,-23.438,-40.039,-74.219,0.000,0
1639023407.847,76.660,-19.531,-37.598,45.410,0.000,0
1639023407.851,-74.219,-20.996,-37.598,85.449,0.000,0
1639023407.855,-193.359,-21.484,-41.504,-0.488,0.000,0
1639023407.859,-132.812,-16.113,-43.457,-103.027,0.000,0
1639023407.863,40.527,-14.160,-41.504,-79.102,0.000,1
1639023407.866,99.609,-17.578,-34.180,42.969,0.000,0
1639023407.870,-45.410,-23.926,-28.320,72.754,0.000,0
1639023407.874,-191.406,-23.926,-33.691,0.000,0.000,0
1639023407.878,-141.602,-27.344,-38.086,-68.359,0.000,0
1639023407.882,30.273,-30.273,-33.691,-71.289,0.000,0
1639023407.886,99.121,-21.973,-30.273,24.414,0.000,0
1639023407.890,-15.625,-20.020,-33.203,92.773,0.000,0
1639023407.894,-164.551,-20.996,-39.551,40.039,0.000,0
1639023407.897,-162.598,-21.484,-41.992,-71.289,0.000,0
1639023407.901,0.977,-19.531,-38.574,-106.445,0.000,0
1639023407.906,112.793,-17.578,-35.645,-3.906,0.000,0
1639023407.910,10.742,-16.113,-38.086,90.332,0.000,0
1639023407.913,-177.734,-22.949,-42.969,41.016,0.000,0
1639023407.917,-186.035,-25.879,-41.504,-68.359,0.000,0
1639023407.921,-13.672,-25.391,-36.621,-88.379,0.000,0
1639023407.925,94.727,-30.762,-36.133,3.906,0.000,0
1639023407.929,14.160,-30.273,-41.504,81.543,0.000,0
1639023407.933,-161.133,-25.391,-41.016,46.387,0.000,0
1639023407.937,-197.754,-31.250,-39.062,-55.176,0.000,0
1639023407.940,-53.223,-39.551,-44.434,-94.727,0.000,0
1639023407.944,67.383,-38.086,-42.969,-26.855,0.000,0
1639023407.948,25.391,-34.180,-41.992,66.406,0.000,0
1639023407.953,-135.742,-34.668,-44.922,62.012,0.000,0
1639023407.956,-199.707,-33.691,-47.852,-38.086,0.000,0
1639023407.960,-64.941,-29.785,-45.410,-100.586,0.000,0
1639023407.964,73.242,-26.855,-38.574,-36.621,0.000,0
1639023407.968,50.781,-23.926,-35.645,77.637,0.000,0
1639023407.972,-103.516,-26.855,-41.016,81.543,0.000,0
1639023407.976,-208.008,-29.297,-44.922,-24.414,0.000,0
1639023407.980,-99.121,-24.414,-43.945,-89.844,0.000,0
1639023407.983,64.941,-30.273,-44.434,-33.691,0.000,0
1639023407.987,62.988,-33.203,-41.992,60.059,0.000,0
1639023407.991,-101.562,-28.320,-40.527,67.871,0.000,0
1639023407.995,-208.984,-32.227,-44.434,-10.254,0.000,0
1639023407.999,-119.629,-31.250,-46.875,-86.426,0.000,0
1639023408.003,50.293,-23.926,-41.016,-62.500,0.000,0
1639023408.007,86.426,-20.020,-33.203,41.504,0.000,0
1639023408.011,-58.594,-21.484,-36.133,79.590,0.000,0
1639023408.015,-190.430,-24.414,-41.504,-0.488,0.000,0
1639023408.019,-125.000,-25.391,-47.852,-89.844,0.000,0
1639023408.023,45.898,-20.508,-42.480,-60.547,0.000,0
1639023408.026,99.609,-18.555,-35.156,50.293,0.000,0
1639023408.030,-30.273,-22.949,-35.645,114.746,0.000,0
1639023408.034,-177.734,-23.926,-33.691,45.410,0.000,0
1639023408.038,-137.695,-20.508,-33.203,-80.566,0.000,0
1639023408.042,35.645,-20.020,-29.297,-75.195,0.000,0
1639023408.046,107.422,-18.066,-26.855,36.133,0.000,0
1639023408.050,-24.902,-19.043,-20.508,80.566,0.000,0
1639023408.054,-188.965,-26.855,-22.949,17.578,0.000,0
1639023408.058,-157.227,-26.855,-32.715,-82.031,0.000,0
1639023408.062,5.371,-26.855,-34.668,-87.891,0.000,0
1639023408.066,74.707,-26.855,-32.715,15.137,0.000,0
1639023408.069,-9.277,-18.066,-31.250,79.590,0.000,0
1639023408.073,-156.738,-23.438,-36.133,54.199,0.000,0
1639023408.077,-166.504,-37.598,-43.945,-48.340,0.000,0
1639023408.081,-21.973,-29.785,-37.109,-97.656,0.000,0
1639023408.085,104.004,-21.484,-30.273,-2.930,0.000,0
1639023408.089,29.785,-25.391,-32.715,93.750,0.000,0
1639023408.093,-150.879,-27.344,-36.621,56.641,0.000,0
1639023408.097,-184.570,-28.809,-34.668,-64.453,0.000,0
1639023408.101,-45.410,-30.762,-34.668,-115.723,0.000,0
1639023408.105,87.402,-30.762,-32.715,-31.738,0.000,0
1639023408.109,24.414,-30.273,-25.879,66.406,0.000,0
1639023408.112,-147.461,-32.715,-27.832,59.082,0.000,0
1639023408.116,-194.824,-33.203,-38.086,-54.688,0.000,0
1639023408.120,-68.848,-39.062,-42.969,-105.957,0.000,0
1639023408.124,69.336,-34.180,-29.297,-37.598,0.000,0
1639023408.128,37.109,-21.973,-20.508,60.547,0.000,0
1639023408.132,-113.281,-29.785,-28.320,75.684,0.000,0
1639023408.136,-189.453,-31.738,-32.715,-35.156,0.000,0
1639023408.140,-74.707,-26.367,-31.250,-117.188,0.000,0
1639023408.144,85.449,-21.973,-27.344,-42.969,0.000,0
1639023408.148,79.590,-22.461,-28.320,77.637,0.000,0
1639023408.151,-87.891,-26.855,-29.297,89.844,0.000,0
1639023408.155,-188.965,-29.297,-33.203,-6.836,0.000,0
1639023408.159,-91.797,-29.297,-43.457,-100.586,0.000,0
1639023408.163,62.012,-27.832,-43.945,-54.199,0.000,0
1639023408.167,78.613,-29.297,-38.086,60.547,0.000,0
1639023408.171,-82.520,-24.902,-35.645,78.125,0.000,0
1639023408.175,-202.637,-30.273,-45.898,-10.254,0.000,0
1639023408.178,-125.488,-39.551,-47.852,-101.074,0.000,0
1639023408.182,45.898,-36.621,-38.574,-90.332,0.000,0
1639023408.187,90.820,-32.227,-35.156,12.695,0.000,0
1639023408.190,-49.805,-31.738,-35.645,77.148,0.000,0
1639023408.194,-185.547,-32.227,-38.086,16.113,0.000,0
1639023408.198,-129.395,-28.809,-40.039,-85.449,0.000,0
1639023408.202,46.875,-21.484,-33.691,-65.918,0.000,0
1639023408.206,102.539,-19.043,-27.344,48.828,0.000,0
1639023408.210,-25.879,-24.414,-29.297,107.422,0.000,0
1639023408.214,-186.035,-29.785,-34.668,37.109,0.000,0
1639023408.218,-181.152,-27.832,-39.062,-88.867,0.000,0
1639023408.221,-9.766,-21.484,-41.016,-86.426,0.000,0
1639023408.225,93.750,-17.090,-38.086,16.602,0.000,0
1639023408.229,-11.230,-15.137,-33.691,78.125,0.000,0
1639023408.233,-178.223,-15.137,-33.691,37.109,0.000,0
1639023408.237,-183.105,-13.672,-40.039,-59.570,0.000,0
1639023408.241,-14.160,-17.090,-41.504,-92.285,0.000,0
1639023408.245,100.586,-12.207,-35.156,-20.508,0.000,0
1639023408.249,30.762,-12.695,-36.133,74.219,0.000,0
1639023408.253,-119.141,-22.461,-45.898,65.918,0.000,0
1639023408.256,-173.340,-25.879,-54.199,-51.270,0.000,0
1639023408.260,-41.016,-23.438,-48.340,-110.352,0.000,0
1639023408.264,102.051,-18.066,-43.457,-26.367,0.000,0
1639023408.268,46.387,-14.160,-37.598,78.613,0.000,0
1639023408.272,-126.465,-15.137,-35.156,69.336,0.000,0
1639023408.276,-194.824,-16.602,-39.062,-40.527,0.000,0
1639023408.280,-58.594,-19.531,-41.992,-91.309,0.000,0
1639023408.284,89.844,-23.926,-39.551,-21.484,0.000,0
1639023408.288,48.340,-20.508,-35.645,74.707,0.000,0
1639023408.292,-121.094,-17.578,-38.574,77.637,0.000,0
1639023408.296,-191.895,-20.508,-40.039,-16.113,0.000,0
1639023408.300,-64.941,-24.414,-43.457,-83.008,0.000,0
1639023408.303,85.938,-23.438,-40.527,-41.016,0.000,0
1639023408.307,67.871,-22.461,-36.133,56.152,0.000,0
1639023408.311,-97.656,-23.926,-38.086,62.988,0.000,0
1639023408.315,-195.312,-25.879,-43.457,-22.949,0.000,0
1639023408.319,-98.633,-30.762,-45.410,-108.398,0.000,0
1639023408.323,54.199,-27.344,-43.945,-81.055,0.000,0
1639023408.327,63.965,-18.555,-40.039,39.062,0.000,0
1639023408.331,-81.543,-15.625,-40.039,75.684,0.000,0
1639023408.335,-195.312,-20.508,-45.410,-26.367,0.000,0
1639023408.339,-118.652,-22.949,-50.781,-110.840,0.000,0
1639023408.343,52.246,-15.625,-43.945,-71.289,0.000,0
1639023408.346,101.562,-16.113,-35.156,38.574,0.000,0
1639023408.350,-43.457,-16.113,-30.273,87.402,0.000,0
1639023408.354,-199.219,-17.090,-32.715,5.859,0.000,0
1639023408.358,-153.809,-21.973,-39.551,-83.984,0.000,0
1639023408.362,12.695,-22.461,-34.180,-61.035,0.000,0
1639023408.366,70.312,-17.578,-32.715,10.742,0.000,0
1639023408.370,-50.781,-16.113,-34.180,67.871,0.000,0
1639023408.374,-194.824,-22.949,-37.598,17.090,0.000,0
1639023408.378,-177.734,-25.391,-45.410,-93.750,0.000,0
1639023408.382,-14.160,-19.531,-43.457,-97.656,0.000,0
1639023408.386,74.707,-20.996,-33.691,3.906,0.000,0
1639023408.389,-33.203,-26.367,-33.203,80.566,0.000,0
1639023408.393,-188.965,-28.809,-39.062,35.645,0.000,0
1639023408.397,-186.035,-29.785,-42.969,-81.055,0.000,0
1639023408.401,-28.809,-31.250,-38.574,-101.562,0.000,0
1639023408.405,79.590,-34.668,-34.668,2.930,0.000,0
1639023408.409,-12.207,-29.297,-41.016,82.520,0.000,0
1639023408.413,-176.758,-23.926,-37.598,38.574,0.000,0
1639023408.417,-195.312,-29.297,-34.668,-58.594,0.000,0
1639023408.421,-40.039,-27.832,-37.598,-101.074,0.000,0
1639023408.425,89.844,-24.414,-36.133,-30.273,0.000,0
1639023408.429,24.902,-26.855,-30.273,81.543,0.000,0
1639023408.432,-145.508,-33.691,-33.203,66.895,0.000,0
1639023408.436,-208.008,-38.086,-45.898,-55.176,0.000,0
1639023408.440,-66.406,-34.668,-46.875,-110.352,0.000,0
1639023408.444,68.359,-32.227,-44.922,-42.969,0.000,0
1639023408.448,33.691,-38.086,-46.875,60.059,0.000,0
1639023408.452,-121.582,-38.086,-46.387,67.871,0.000,0
1639023408.456,-210.449,-31.738,-48.828,-47.363,0.000,0
1639023408.459,-81.055,-32.715,-47.852,-103.516,0.000,0
1639023408.463,64.941,-35.156,-40.039,-40.039,0.000,0
1639023408.468,47.363,-34.668,-39.062,47.363,0.000,0
1639023408.472,-107.910,-32.715,-43.457,66.406,0.000,0
1639023408.475,-216.797,-37.598,-49.805,-19.531,0.000,0
1639023408.479,-121.094,-43.457,-51.270,-112.305,0.000,0
1639023408.483,35.645,-39.551,-46.387,-73.730,0.000,0
1639023408.487,63.477,-32.715,-43.945,53.711,0.000,0
1639023408.491,-90.820,-36.133,-41.504,74.707,0.000,0
1639023408.495,-216.309,-45.410,-51.758,-12.207,0.000,0
1639023408.499,-119.629,-43.457,-56.641,-107.422,0.000,0
1639023408.502,44.922,-36.621,-50.293,-87.402,0.000,0
1639023408.506,75.195,-40.527,-48.828,21.484,0.000,0
1639023408.510,-70.801,-41.992,-48.828,62.012,0.000,0
1639023408.514,-209.473,-39.551,-48.828,-9.277,0.000,0
1639023408.518,-157.227,-38.086,-47.363,-110.840,0.000,0
1639023408.522,20.020,-36.621,-44.434,-90.820,0.000,0
1639023408.526,96.191,-32.227,-33.691,27.832,0.000,0
1639023408.530,-41.504,-33.203,-31.738,83.984,0.000,0
1639023408.534,-193.359,-41.016,-43.457,19.531,0.000,0
1639023408.538,-161.133,-42.969,-46.387,-71.777,0.000,0
1639023408.542,2.441,-37.109,-40.039,-84.473,0.000,0
1639023408.545,92.285,-25.879,-30.762,-10.742,0.000,0
1639023408.549,-17.090,-23.926,-34.668,67.383,0.000,0
1639023408.553,-182.617,-24.414,-43.457,22.461,0.000,0
1639023408.557,-179.688,-24.414,-48.340,-85.449,0.000,0
1639023408.561,-15.625,-21.484,-40.039,-110.352,0.000,0
1639023408.565,97.656,-15.137,-31.250,-16.602,0.000,0
1639023408.569,6.348,-16.113,-31.250,78.613,0.000,0
1639023408.573,-178.711,-22.949,-39.551,42.480,0.000,0
1639023408.577,-211.914,-25.391,-48.340,-71.289,0.000,0
1639023408.581,-44.434,-25.391,-49.316,-116.699,0.000,0
1639023408.584,82.031,-31.250,-47.852,-28.320,0.000,0
1639023408.588,9.766,-28.809,-47.363,68.359,0.000,0
1639023408.592,-144.043,-18.555,-44.434,40.527,0.000,0
1639023408.596,-189.453,-22.949,-50.293,-59.082,0.000,0
1639023408.600,-58.105,-28.320,-51.270,-104.004,0.000,0
1639023408.604,90.332,-18.066,-40.527,-29.297,0.000,0
1639023408.608,45.410,-14.160,-37.109,70.801,0.000,0
1639023408.612,-116.699,-19.043,-40.527,82.520,0.000,0
1639023408.616,-193.848,-24.902,-44.922,-12.207,0.000,0
1639023408.619,-82.031,-20.508,-39.062,-104.492,0.000,0
1639023408.623,81.543,-14.648,-24.414,-48.340,0.000,0
1639023408.627,75.684,-17.578,-23.438,78.125,0.000,0
1639023408.631,-89.844,-23.438,-33.691,87.891,0.000,0
1639023408.635,-198.242,-25.391,-29.297,-23.926,0.000,0
1639023408.639,-93.262,-21.484,-26.367,-103.516,0.000,0
1639023408.643,80.566,-21.973,-29.785,-43.945,0.000,0
1639023408.647,88.867,-23.926,-27.832,64.941,0.000,0
1639023408.650,-78.613,-21.484,-28.320,71.777,0.000,0
1639023408.655,-196.289,-26.367,-33.203,-16.602,0.000,0
1639023408.659,-126.953,-36.621,-39.551,-97.656,0.000,0
1639023408.663,35.645,-35.645,-41.016,-68.359,0.000,0
1639023408.666,77.148,-28.320,-37.598,39.551,0.000,1
1639023408.670,-70.312,-32.227,-37.598,74.707,0.000,0
1639023408.674,-201.660,-43.945,-44.922,1.465,0.000,0
1639023408.678,-147.461,-38.574,-45.898,-83.008,0.000,0
1639023408.682,20.996,-25.391,-38.086,-77.637,0.000,0
1639023408.686,88.379,-23.438,-35.645,32.715,0.000,0
1639023408.690,-44.922,-30.762,-39.062,91.309,0.000,0
1639023408.693,-191.895,-32.227,-40.039,14.160,0.000,0
1639023408.697,-156.738,-29.297,-38.086,-90.332,0.000,0
1639023408.702,18.555,-34.668,-34.668,-93.262,0.000,0
1639023408.706,104.980,-31.250,-29.297,5.371,0.000,0
1639023408.709,-17.578,-24.414,-32.227,71.777,0.000,0
1639023408.713,-170.898,-27.344,-38.574,15.137,0.000,0
1639023408.717,-159.180,-30.273,-41.992,-71.289,0.000,0
1639023408.721,8.301,-24.414,-37.109,-82.520,0.000,0
1639023408.725,116.211,-18.066,-26.367,0.977,0.000,0
1639023408.729,14.160,-20.508,-23.438,89.844,0.000,0
1639023408.733,-143.555,-24.414,-30.273,65.918,0.000,0
1639023408.737,-177.734,-31.738,-32.227,-39.551,0.000,0
1639023408.740,-36.621,-27.832,-24.902,-93.262,0.000,0
1639023408.744,103.027,-22.461,-22.461,-9.277,0.000,0
1639023408.749,31.250,-21.973,-28.809,70.312,0.000,0
1639023408.753,-141.113,-25.879,-33.203,42.969,0.000,0
1639023408.757,-186.523,-30.762,-28.809,-52.734,0.000,0
1639023408.760,-41.504,-28.320,-27.344,-101.074,0.000,0
1639023408.764,105.469,-20.020,-20.508,-18.555,0.000,0
1639023408.768,62.988,-19.043,-17.578,79.590,0.000,0
1639023408.772,-114.746,-24.414,-23.926,73.730,0.000,0
1639023408.776,-181.641,-22.949,-26.367,-17.578,0.000,0
1639023408.780,-59.570,-25.879,-23.926,-78.125,0.000,0
1639023408.784,83.496,-22.461,-13.184,-45.898,0.000,0
1639023408.787,80.566,-12.207,-4.883,47.852,0.000,0
1639023408.791,-82.520,-14.160,-10.742,78.613,0.000,0
1639023408.796,-185.059,-16.602,-16.113,-16.113,0.000,0
1639023408.800,-74.707,-13.672,-17.090,-95.215,0.000,0
1639023408.803,93.750,-9.766,-13.184,-44.434,0.000,0
1639023408.807,104.004,-10.254,-9.277,79.590,0.000,0
1639023408.811,-64.941,-13.184,-14.160,104.980,0.000,0
1639023408.815,-184.570,-13.184,-22.949,11.230,0.000,0
1639023408.819,-94.727,-17.090,-27.344,-77.148,0.000,0
1639023408.823,63.965,-20.996,-27.344,-59.082,0.000,0
1639023408.827,90.332,-20.996,-26.367,36.621,0.000,0
1639023408.830,-57.129,-21.973,-32.227,69.336,0.000,0
1639023408.834,-194.824,-21.484,-37.109,2.441,0.000,0
1639023408.838,-131.348,-27.344,-44.434,-75.195,0.000,0
1639023408.843,30.273,-27.344,-44.922,-75.195,0.000,0
1639023408.846,85.938,-23.926,-41.016,9.766,0.000,0
1639023408.850,-38.574,-34.180,-47.852,72.754,0.000,0
1639023408.854,-194.824,-39.062,-50.293,3.906,0.000,0
1639023408.858,-158.691,-33.203,-51.758,-93.262,0.000,0
1639023408.862,18.066,-30.273,-51.270,-78.613,0.000,0
1639023408.866,94.238,-35.156,-45.898,23.438,0.000,0
1639023408.870,-23.438,-34.180,-41.504,86.426,0.000,0
1639023408.873,-183.105,-31.250,-45.898,27.832,0.000,0
1639023408.877,-180.664,-33.203,-51.758,-82.031,0.000,0
1639023408.881,-9.766,-33.691,-52.734,-97.656,0.000,0
1639023408.885,100.098,-27.344,-50.293,-5.859,0.000,0
1639023408.889,1.953,-25.391,-47.852,74.707,0.000,0
1639023408.893,-155.273,-27.344,-46.875,32.715,0.000,0
1639023408.897,-179.688,-32.715,-53.711,-72.266,0.000,0
1639023408.901,-35.156,-32.227,-53.711,-102.051,0.000,0
1639023408.905,90.820,-21.973,-39.551,-18.555,0.000,0
1639023408.909,22.461,-23.438,-39.062,71.289,0.000,0
1639023408.912,-147.949,-32.227,-45.898,57.129,0.000,0
1639023408.916,-194.336,-36.621,-48.828,-40.039,0.000,0
1639023408.920,-54.688,-30.273,-43.457,-102.051,0.000,0
1639023408.924,79.590,-28.809,-43.457,-33.203,0.000,0
1639023408.928,26.367,-32.227,-45.410,65.430,0.000,0
1639023408.932,-139.160,-34.180,-49.316,46.875,0.000,0
1639023408.936,-199.707,-35.156,-47.852,-60.547,0.000,0
1639023408.940,-63.965,-33.691,-44.434,-107.910,0.000,0
1639023408.944,83.984,-32.227,-40.527,-42.480,0.000,0
1639023408.948,51.270,-32.227,-33.691,64.941,0.000,0
1639023408.952,-113.281,-32.227,-38.086,71.289,0.000,0
1639023408.955,-194.336,-35.645,-45.898,-21.484,0.000,0
1639023408.959,-85.938,-40.527,-49.316,-70.312,0.000,0
1639023408.963,62.500,-35.645,-46.387,-36.133,0.000,0
1639023408.967,72.754,-29.297,-40.039,39.062,0.000,0
1639023408.971,-83.984,-36.621,-42.969,72.266,0.000,0
1639023408.975,-211.914,-42.480,-48.828,-7.812,0.000,0
1639023408.979,-124.023,-42.480,-54.199,-102.051,0.000,0
1639023408.983,44.434,-36.133,-49.805,-62.012,0.000,0
1639023408.987,79.102,-31.738,-45.898,49.316,0.000,0
1639023408.990,-76.172,-32.715,-42.969,79.102,0.000,0
1639023408.994,-213.379,-33.203,-41.992,-1.465,0.000,0
1639023408.998,-148.438,-37.109,-46.387,-103.516,0.000,0
1639023409.002,22.949,-41.504,-43.945,-72.266,0.000,0
1639023409.006,79.590,-34.668,-38.086,41.504,0.000,0
1639023409.010,-55.664,-25.391,-32.227,74.219,0.000,0
1639023409.014,-206.055,-28.809,-37.109,3.906,0.000,0
1639023409.018,-174.805,-38.086,-48.340,-86.914,0.000,0
1639023409.021,2.441,-41.992,-46.387,-89.355,0.000,0
1639023409.025,84.473,-31.738,-35.156,7.324,0.000,0
1639023409.030,-32.227,-24.902,-28.809,79.590,0.000,0
1639023409.034,-187.012,-30.762,-33.691,21.973,0.000,0
1639023409.037,-164.062,-32.227,-40.527,-87.891,0.000,0
1639023409.041,-0.488,-30.273,-45.898,-110.352,0.000,0
1639023409.045,92.773,-31.250,-46.875,-5.371,0.000,0
1639023409.049,-2.930,-33.203,-42.969,86.914,0.000,0
1639023409.053,-165.527,-34.180,-45.898,39.062,0.000,0
1639023409.057,-174.316,-26.855,-45.410,-66.406,0.000,0
1639023409.061,-11.230,-21.973,-42.969,-101.562,0.000,0
1639023409.064,111.816,-28.809,-44.434,-10.742,0.000,0
1639023409.068,26.367,-26.855,-41.016,80.078,0.000,0
1639023409.072,-146.973,-23.438,-40.039,41.504,0.000,0
1639023409.077,-183.105,-23.926,-45.410,-49.316,0.000,0
1639023409.080,-36.621,-22.461,-44.434,-89.355,0.000,0
1639023409.084,88.867,-23.438,-44.434,-27.832,0.000,0
1639023409.088,41.016,-27.832,-40.039,67.871,0.000,0
1639023409.092,-136.230,-30.762,-37.109,72.754,0.000,0
1639023409.096,-205.566,-31.738,-44.434,-22.949,0.000,0
1639023409.100,-68.848,-27.832,-43.457,-101.074,0.000,0
1639023409.104,74.707,-22.461,-36.621,-45.898,0.000,0
1639023409.108,52.734,-23.926,-33.203,68.848,0.000,0
1639023409.111,-109.375,-24.902,-30.762,80.566,0.000,0
1639023409.115,-206.055,-19.531,-31.738,-37.598,0.000,0
1639023409.119,-94.727,-21.484,-38.086,-100.098,0.000,0
1639023409.124,71.777,-23.438,-35.156,-33.203,0.000,0
1639023409.127,69.824,-18.555,-29.785,56.641,0.000,0
