timestamps,TP9,AF7,AF8,TP10,Right AUX,Marker0
1641445062.954,0.000,0.000,-0.488,0.000,0.000,0
1641445062.957,0.000,0.000,-1.953,0.000,0.000,0
1641445062.961,-6.836,-1.465,6.348,-7.324,0.000,0
1641445062.965,13.672,2.930,-17.090,15.137,0.000,0
1641445062.969,-82.520,-16.602,48.828,-85.938,0.000,0
1641445062.973,-230.957,-42.969,91.309,-239.258,0.000,0
1641445062.977,-249.023,-35.156,-17.578,-228.516,0.000,0
1641445062.981,-250.488,-37.109,-6.348,-228.516,0.000,0
1641445062.984,-228.027,-44.434,16.113,-226.074,0.000,0
1641445062.988,-217.285,-45.410,17.090,-210.938,0.000,0
1641445062.992,-227.539,-34.180,24.414,-218.262,0.000,0
1641445062.996,-216.797,-27.344,26.855,-211.426,0.000,0
1641445063.000,-187.012,-39.062,30.273,-182.129,0.000,0
1641445063.003,-150.879,-30.762,32.227,-152.832,0.000,0
1641445063.007,-162.109,-18.066,35.156,-167.969,0.000,0
1641445063.011,-178.223,-25.879,39.062,-179.199,0.000,0
1641445063.015,-135.254,-27.832,28.320,-151.855,0.000,0
1641445063.019,-105.469,-27.832,10.254,-124.023,0.000,0
1641445063.023,-121.582,-27.344,11.719,-123.535,0.000,0
1641445063.026,-142.090,-24.414,22.949,-124.023,0.000,0
1641445063.030,-131.836,-29.785,22.461,-111.328,0.000,0
1641445063.034,-85.938,-31.738,20.020,-83.008,0.000,0
1641445063.038,-86.914,-37.109,21.484,-84.473,0.000,0
1641445063.042,-104.492,-50.293,10.254,-98.633,0.000,0
1641445063.047,-91.797,-40.039,6.348,-90.820,0.000,0
1641445063.050,-63.477,-29.297,11.230,-78.125,0.000,0
1641445063.054,-42.480,-32.715,12.207,-62.500,0.000,0
1641445063.058,-71.289,-34.668,18.066,-74.707,0.000,0
1641445063.062,-88.379,-39.062,17.090,-73.730,0.000,0
1641445063.066,-64.453,-37.109,7.812,-57.129,0.000,0
1641445063.070,-36.621,-40.527,8.301,-43.457,0.000,0
1641445063.074,-49.316,-41.504,11.230,-54.199,0.000,0
1641445063.078,-66.895,-35.156,15.625,-62.012,0.000,0
1641445063.081,-49.316,-37.109,17.578,-45.898,0.000,0
1641445063.085,-20.020,-39.551,14.160,-34.180,0.000,0
1641445063.089,-41.992,-34.668,18.066,-39.551,0.000,0
1641445063.098,-76.172,-28.809,18.066,-53.223,0.000,0
1641445063.102,-64.453,-30.762,13.184,-60.547,0.000,0
1641445063.106,-38.086,-40.039,7.324,-47.363,0.000,0
1641445063.110,-32.715,-33.203,16.113,-45.410,0.000,0
1641445063.114,-53.711,-31.250,16.602,-65.430,0.000,0
1641445063.118,-65.430,-37.109,5.859,-74.219,0.000,0
1641445063.122,-41.992,-46.387,-0.977,-50.293,0.000,0
1641445063.126,-28.320,-46.875,3.906,-24.414,0.000,0
1641445063.130,-57.617,-26.855,19.531,-58.105,0.000,0
1641445063.134,-63.477,-29.785,17.090,-68.848,0.000,0
1641445063.138,-37.598,-36.621,8.789,-53.711,0.000,0
1641445063.142,-19.043,-36.133,7.812,-36.133,0.000,0
1641445063.154,-41.504,-36.133,4.883,-47.363,0.000,0
1641445063.158,-65.918,-29.785,3.418,-69.824,0.000,0
1641445063.162,-52.246,-26.855,7.812,-68.359,0.000,0
1641445063.166,-23.438,-26.367,13.184,-54.688,0.000,0
1641445063.171,-31.250,-31.738,14.648,-63.965,0.000,0
1641445063.175,-62.012,-36.133,8.301,-87.402,0.000,0
1641445063.179,-63.477,-36.621,7.324,-77.148,0.000,0
1641445063.183,-44.434,-41.992,12.207,-42.969,0.000,0
1641445063.187,-50.781,-38.086,16.602,-49.805,0.000,0
1641445063.192,-75.684,-42.969,10.254,-85.938,0.000,0
1641445063.196,-77.148,-45.898,6.836,-83.008,0.000,0
1641445063.200,-56.152,-41.992,7.324,-72.266,0.000,0
1641445063.215,-43.945,-36.621,9.766,-67.383,0.000,0
1641445063.219,-65.918,-48.340,2.930,-80.566,0.000,0
1641445063.223,-74.707,-59.570,-7.812,-92.773,0.000,0
1641445063.228,-61.523,-49.805,-6.348,-86.426,0.000,0
1641445063.232,-32.227,-44.922,-2.441,-58.105,0.000,0
1641445063.237,-55.176,-41.992,-1.465,-68.848,0.000,0
1641445063.241,-84.961,-37.109,-0.488,-90.820,0.000,0
1641445063.245,-77.148,-41.992,0.977,-89.355,0.000,1
1641445063.250,-41.992,-47.363,8.789,-58.105,0.000,0
1641445063.254,-51.270,-44.434,8.301,-53.223,0.000,0
1641445063.258,-99.121,-46.875,2.930,-83.008,0.000,0
1641445063.263,-84.961,-40.039,11.230,-79.590,0.000,0
1641445063.279,-40.039,-34.668,9.766,-54.688,0.000,0
1641445063.284,-30.762,-40.039,2.930,-40.039,0.000,0
1641445063.288,-70.801,-45.410,0.977,-73.730,0.000,0
1641445063.293,-96.680,-46.875,0.488,-102.539,0.000,0
1641445063.297,-54.688,-39.551,7.812,-59.570,0.000,0
1641445063.302,22.461,-22.461,31.250,19.043,0.000,0
1641445063.306,-50.293,-39.551,18.066,-48.340,0.000,0
1641445063.311,-161.621,-74.707,-17.090,-167.969,0.000,0
1641445063.315,-115.234,-75.195,-10.254,-126.465,0.000,0
1641445063.320,56.152,-34.180,47.363,68.359,0.000,0
1641445063.324,3.906,-30.762,43.457,12.207,0.000,0
1641445063.329,-181.152,-71.289,-19.043,-184.570,0.000,0
1641445063.356,-165.039,-67.871,-17.090,-174.805,0.000,0
1641445063.361,27.344,-12.695,44.922,12.207,0.000,0
1641445063.366,44.922,-9.277,53.223,51.758,0.000,0
1641445063.371,-162.109,-67.871,-13.672,-149.902,0.000,0
1641445063.375,-197.754,-82.031,-26.855,-191.406,0.000,0
1641445063.380,-17.578,-43.945,15.137,-13.672,0.000,0
1641445063.385,77.148,-12.207,47.363,82.520,0.000,0
1641445063.390,-113.281,-49.805,5.859,-105.469,0.000,0
1641445063.395,-219.238,-79.590,-36.621,-211.426,0.000,0
1641445063.399,-89.844,-57.617,-4.395,-91.309,0.000,0
1641445063.404,67.871,-17.578,57.617,79.102,0.000,0
1641445063.409,-72.754,-40.527,24.902,-52.246,0.000,0
1641445063.427,-229.492,-77.148,-36.133,-229.004,0.000,0
1641445063.432,-140.137,-58.594,-15.137,-151.855,0.000,0
1641445063.437,57.129,-8.301,54.688,59.082,0.000,0
1641445063.442,-2.441,-21.484,43.945,5.859,0.000,0
1641445063.447,-190.918,-83.496,-35.156,-196.289,0.000,0
1641445063.452,-182.129,-80.566,-44.434,-192.383,0.000,0
1641445063.457,14.160,-20.996,27.344,2.441,0.000,0
1641445063.462,48.828,-8.301,47.852,44.434,0.000,0
1641445063.467,-178.711,-62.500,-20.020,-172.852,0.000,0
1641445063.472,-225.098,-85.938,-40.527,-238.281,0.000,0
1641445063.477,-37.598,-39.551,18.555,-62.012,0.000,0
1641445063.481,72.754,0.000,69.824,81.055,0.000,0
1641445063.492,-124.512,-53.223,4.883,-115.723,0.000,0
1641445063.497,-229.980,-86.426,-46.875,-240.234,0.000,0
1641445063.502,-87.891,-53.223,-0.977,-112.793,0.000,0
1641445063.507,85.449,-7.812,64.941,67.383,0.000,0
1641445063.512,-56.152,-33.691,22.461,-50.781,0.000,0
1641445063.517,-236.816,-81.543,-46.875,-230.469,0.000,0
1641445063.522,-156.250,-63.965,-25.879,-165.039,0.000,0
1641445063.527,40.527,-7.324,52.246,33.691,0.000,0
1641445063.532,-2.441,-12.207,43.945,3.418,0.000,0
1641445063.537,-205.566,-70.801,-28.320,-205.078,0.000,0
1641445063.542,-208.984,-79.102,-30.273,-216.797,0.000,0
1641445063.547,-3.418,-35.156,23.438,-0.488,0.000,0
1641445063.551,53.223,-10.742,50.781,70.312,0.000,0
1641445063.556,-167.480,-55.176,-7.324,-170.410,0.000,0
1641445063.560,-219.238,-76.172,-37.109,-251.465,0.000,0
1641445063.565,-32.227,-35.645,12.695,-77.148,0.000,0
1641445063.570,87.402,-2.930,57.617,70.312,0.000,0
1641445063.575,-110.352,-46.875,4.883,-108.887,0.000,0
1641445063.580,-232.422,-79.102,-41.504,-246.094,0.000,0
1641445063.585,-104.004,-52.246,-12.207,-129.883,0.000,0
1641445063.590,69.824,-3.418,51.758,65.430,0.000,0
1641445063.595,-58.105,-26.367,24.414,-44.922,0.000,0
1641445063.600,-238.770,-79.590,-36.621,-242.676,0.000,0
1641445063.605,-173.340,-73.730,-23.438,-185.059,0.000,0
1641445063.604,41.992,-15.625,39.551,33.691,0.000,0
1641445063.609,13.672,-19.531,34.668,25.879,0.000,0
1641445063.614,-205.078,-87.402,-34.180,-208.984,0.000,0
1641445063.619,-212.402,-90.820,-37.598,-231.445,0.000,0
1641445063.624,-20.996,-28.809,31.738,-24.414,0.000,0
1641445063.629,48.340,0.488,62.012,54.199,0.000,0
1641445063.633,-154.297,-68.359,-18.066,-155.762,0.000,0
1641445063.638,-231.934,-95.703,-51.270,-247.559,0.000,0
1641445063.643,-66.895,-37.598,8.301,-88.379,0.000,0
1641445063.648,77.148,4.883,69.824,94.238,0.000,0
1641445063.653,-100.586,-37.109,26.855,-72.754,0.000,0
1641445063.658,-236.328,-77.637,-28.320,-240.723,0.000,0
1641445063.653,-110.840,-52.734,-6.348,-129.395,0.000,0
1641445063.657,104.980,9.766,63.477,105.469,0.000,0
1641445063.662,-7.324,-12.695,47.363,20.508,0.000,0
1641445063.667,-235.840,-82.031,-27.832,-224.609,0.000,0
1641445063.672,-165.527,-72.754,-21.973,-170.898,0.000,0
1641445063.677,62.988,-11.230,44.434,62.500,0.000,0
1641445063.682,28.809,-12.207,51.270,46.387,0.000,0
1641445063.687,-193.359,-72.754,-16.602,-186.035,0.000,0
1641445063.691,-189.941,-75.195,-22.949,-207.031,0.000,0
1641445063.696,16.602,-23.438,40.527,1.953,0.000,0
1641445063.701,81.055,-2.441,70.312,97.168,0.000,0
1641445063.706,-143.066,-58.594,4.883,-127.441,0.000,0
1641445063.697,-225.098,-81.055,-35.156,-234.863,0.000,0
1641445063.702,-56.152,-46.875,-1.953,-71.289,0.000,0
1641445063.707,107.422,4.883,63.477,119.141,0.000,0
1641445063.711,-58.594,-19.531,38.086,-46.387,0.000,0
1641445063.716,-219.238,-77.148,-21.484,-229.004,0.000,0
1641445063.721,-125.000,-67.871,1.465,-134.277,0.000,0
1641445063.726,62.500,-9.277,76.172,73.730,0.000,0
1641445063.730,-16.602,-17.090,57.129,2.930,0.000,0
1641445063.735,-218.262,-70.312,-19.043,-216.309,0.000,0
1641445063.740,-186.035,-64.453,-20.996,-199.707,0.000,0
1641445063.745,31.250,-2.441,45.410,20.996,0.000,0
1641445063.750,43.945,1.465,59.082,47.852,0.000,0
1641445063.738,-177.734,-59.570,-22.949,-183.594,0.000,0
1641445063.743,-203.613,-67.383,-41.504,-227.051,0.000,0
1641445063.747,-26.367,-30.762,26.367,-37.109,0.000,0
1641445063.752,65.918,-9.277,72.266,90.820,0.000,0
1641445063.757,-143.555,-60.547,7.324,-125.977,0.000,0
1641445063.761,-242.188,-96.191,-40.039,-254.395,0.000,0
1641445063.766,-79.590,-52.734,0.000,-101.074,0.000,0
1641445063.771,93.750,5.371,68.359,101.562,0.000,0
1641445063.775,-68.848,-32.715,21.484,-20.996,0.000,0
1641445063.780,-232.910,-81.543,-55.664,-214.355,0.000,0
1641445063.785,-146.484,-56.641,-18.066,-162.109,0.000,0
1641445063.789,62.012,1.953,63.965,56.641,0.000,0
1641445063.776,19.043,-20.996,44.434,27.344,0.000,0
1641445063.780,-202.637,-92.285,-38.574,-211.914,0.000,0
1641445063.785,-173.828,-68.848,-33.203,-193.848,0.000,0
1641445063.789,44.922,-0.977,43.945,42.480,0.000,0
1641445063.794,63.965,-4.883,40.527,67.383,0.000,0
1641445063.799,-150.879,-62.012,-36.133,-155.273,0.000,0
1641445063.803,-206.055,-66.895,-33.691,-226.562,0.000,0
1641445063.808,-38.086,-22.461,24.414,-63.965,0.000,0
1641445063.812,86.914,-0.977,57.129,88.867,0.000,0
1641445063.817,-103.516,-51.758,-0.488,-97.168,0.000,0
1641445063.821,-234.375,-73.730,-32.227,-253.418,0.000,0
1641445063.826,-95.215,-40.039,20.996,-121.582,0.000,0
1641445063.811,93.750,-1.465,63.477,94.727,0.000,0
1641445063.815,-49.805,-33.203,-5.859,-25.391,0.000,0
1641445063.820,-244.629,-71.777,-33.691,-238.770,0.000,0
1641445063.824,-172.852,-58.105,5.859,-182.617,0.000,0
1641445063.829,56.641,-20.996,63.477,50.781,0.000,0
1641445063.833,22.949,-34.180,56.152,33.691,0.000,0
1641445063.837,-218.262,-73.730,-11.719,-211.426,0.000,0
1641445063.842,-197.754,-76.172,-13.184,-216.309,0.000,0
1641445063.846,30.273,-26.855,37.109,15.625,0.000,0
1641445063.851,70.312,14.648,64.941,84.473,0.000,0
1641445063.855,-165.527,-28.809,1.953,-150.391,0.000,0
1641445063.860,-222.656,-71.777,-39.062,-231.445,0.000,0
1641445063.846,-52.734,-39.551,11.719,-67.383,0.000,0
1641445063.851,84.961,8.789,78.613,81.055,0.000,0
1641445063.855,-91.309,-45.410,27.344,-92.285,0.000,0
1641445063.859,-236.328,-93.262,-40.527,-237.305,0.000,0
1641445063.864,-118.164,-62.500,-11.719,-131.348,0.000,0
1641445063.868,94.238,-6.348,74.707,87.891,0.000,0
1641445063.872,1.953,-25.391,59.570,13.184,0.000,0
1641445063.877,-225.098,-89.844,-29.785,-229.004,0.000,0
1641445063.881,-180.176,-72.266,-37.598,-206.055,0.000,0
1641445063.886,55.664,17.090,25.879,35.156,0.000,0
1641445063.890,23.438,0.000,33.691,20.020,0.000,0
1641445063.894,-218.262,-63.965,-18.066,-235.352,0.000,0
1641445063.882,-237.793,-58.105,-38.086,-259.766,0.000,0
1641445063.887,-34.180,-1.465,46.387,-44.434,0.000,0
1641445063.891,58.594,22.949,83.496,51.758,0.000,0
1641445063.895,-169.922,-47.852,-1.465,-177.734,0.000,0
1641445063.900,-257.812,-92.285,-22.949,-268.066,0.000,0
1641445063.904,-82.520,-54.199,23.438,-96.191,0.000,0
1641445063.908,78.125,-2.930,67.383,74.219,0.000,0
1641445063.912,-87.402,-57.129,10.742,-86.914,0.000,0
1641445063.917,-246.094,-88.379,-33.691,-252.441,0.000,0
1641445063.921,-136.719,-46.875,-20.996,-161.133,0.000,0
1641445063.925,77.148,4.883,45.410,54.199,0.000,0
1641445063.930,-18.066,-16.113,36.621,-20.508,0.000,0
1641445063.919,-235.352,-74.707,-34.668,-239.746,0.000,0
1641445063.923,-186.523,-74.707,-14.160,-215.332,0.000,0
1641445063.928,30.273,-19.531,60.547,9.766,0.000,0
1641445063.932,27.832,-11.230,67.871,34.180,0.000,0
1641445063.936,-199.707,-71.777,-20.996,-204.102,0.000,0
1641445063.940,-228.027,-87.891,-27.832,-248.047,0.000,0
1641445063.944,-30.762,-47.363,32.715,-45.410,0.000,0
1641445063.949,81.055,-13.184,73.730,83.008,0.000,0
1641445063.953,-125.977,-54.199,23.438,-140.137,0.000,0
1641445063.957,-236.328,-93.750,-22.461,-259.277,0.000,0
1641445063.961,-86.914,-62.012,15.137,-108.398,0.000,0
1641445063.966,93.262,-3.906,80.078,78.125,0.000,0
1641445063.956,-61.523,-43.457,47.363,-52.734,0.000,0
1641445063.960,-248.535,-97.656,-29.297,-244.141,0.000,0
1641445063.965,-126.953,-60.547,-8.789,-152.832,0.000,0
1641445063.969,90.332,-2.441,81.055,79.590,0.000,0
1641445063.973,-7.812,-28.320,62.012,1.953,0.000,0
1641445063.977,-220.215,-81.543,-16.113,-226.562,0.000,0
1641445063.981,-186.035,-82.520,-22.949,-207.520,0.000,0
1641445063.985,25.879,-19.531,50.293,6.836,0.000,0
1641445063.990,49.316,5.859,86.914,62.988,0.000,0
1641445063.994,-178.711,-62.988,15.625,-162.598,0.000,0
1641445063.998,-221.191,-88.379,-16.113,-231.445,0.000,0
1641445064.002,-33.203,-33.203,38.086,-42.969,0.000,0
1641445063.995,97.168,1.465,73.242,105.469,0.000,0
1641445063.999,-112.793,-55.176,0.488,-95.215,0.000,0
1641445064.003,-253.906,-85.449,-34.180,-248.535,0.000,0
1641445064.008,-105.957,-47.852,20.508,-118.164,0.000,0
1641445064.012,88.379,-2.441,91.797,76.172,0.000,0
1641445064.016,-42.480,-40.039,50.781,-31.738,0.000,0
1641445064.020,-235.352,-84.961,-24.414,-219.238,0.000,0
1641445064.024,-160.645,-66.895,-3.418,-170.410,0.000,0
1641445064.028,59.570,-18.555,45.410,45.410,0.000,0
1641445064.032,1.953,-33.691,28.809,21.484,0.000,0
1641445064.037,-222.168,-86.914,-12.695,-206.055,0.000,0
1641445064.041,-218.750,-80.078,-17.090,-218.262,0.000,0
1641445064.035,-3.906,-24.902,38.574,-16.113,0.000,0
1641445064.039,63.965,-4.883,72.754,60.547,0.000,0
1641445064.043,-165.039,-64.941,12.207,-155.762,0.000,0
1641445064.047,-230.469,-90.332,-23.438,-243.652,0.000,0
1641445064.051,-45.410,-44.922,17.090,-69.824,0.000,0
1641445064.055,97.656,-1.953,67.383,88.379,0.000,0
1641445064.059,-97.168,-46.387,16.113,-86.426,0.000,0
1641445064.063,-248.047,-82.031,-32.715,-231.934,0.000,0
1641445064.067,-124.023,-58.105,-4.395,-127.441,0.000,0
1641445064.072,77.637,-9.766,56.152,74.219,0.000,0
1641445064.076,-43.945,-23.926,34.180,-36.621,0.000,0
1641445064.080,-237.793,-77.637,-23.926,-251.465,0.000,0
1641445064.075,-161.621,-69.336,-11.719,-199.219,0.000,0
1641445064.079,60.059,-7.812,56.152,20.508,0.000,0
1641445064.083,33.203,-3.906,60.547,23.926,0.000,0
1641445064.087,-195.312,-60.059,-12.207,-202.637,0.000,0
1641445064.091,-204.102,-71.289,-54.199,-232.910,0.000,0
1641445064.095,-0.488,-23.438,-6.836,-25.391,0.000,0
1641445064.099,77.148,11.719,69.824,73.242,0.000,0
1641445064.103,-154.297,-44.434,22.949,-157.227,0.000,0
1641445064.107,-233.398,-86.914,-29.785,-239.258,0.000,0
1641445064.111,-49.316,-43.457,14.160,-68.359,0.000,0
1641445064.115,111.816,19.531,86.914,83.496,0.000,0
1641445064.119,-69.824,-27.344,39.062,-70.801,0.000,0
1641445064.115,-228.027,-82.520,-23.438,-228.516,0.000,0
1641445064.119,-111.816,-48.828,-4.883,-137.695,0.000,0
1641445064.123,98.633,17.578,53.711,69.824,0.000,1
1641445064.127,-12.207,-15.625,38.574,-13.672,0.000,0
1641445064.131,-218.750,-78.125,-23.438,-222.656,0.000,0
1641445064.135,-164.551,-67.383,-29.297,-187.500,0.000,0
1641445064.139,38.086,-7.812,41.504,26.855,0.000,0
1641445064.143,37.598,-10.254,62.012,47.852,0.000,0
1641445064.147,-196.777,-87.891,-4.883,-187.012,0.000,0
1641445064.151,-231.934,-81.055,-14.160,-236.816,0.000,0
1641445064.155,-23.926,-13.672,33.691,-55.664,0.000,0
1641445064.159,82.031,11.230,69.824,65.918,0.000,0
1641445064.155,-134.277,-44.434,4.883,-123.535,0.000,0
1641445064.159,-230.469,-73.730,-41.504,-235.352,0.000,0
1641445064.163,-77.148,-36.133,13.672,-101.074,0.000,0
1641445064.167,86.914,8.789,80.566,83.984,0.000,0
1641445064.171,-79.102,-32.715,26.855,-53.223,0.000,0
1641445064.175,-248.535,-85.449,-27.832,-235.352,0.000,0
1641445064.179,-140.137,-54.688,9.766,-146.484,0.000,0
1641445064.183,70.801,-6.348,68.848,70.801,0.000,0
1641445064.187,-20.996,-30.273,38.574,5.371,0.000,0
1641445064.191,-238.770,-70.312,-20.508,-217.285,0.000,0
1641445064.195,-192.871,-64.453,-19.043,-195.801,0.000,0
1641445064.199,32.227,-20.508,47.363,16.602,0.000,0
1641445064.196,54.688,-9.766,67.383,62.500,0.000,0
1641445064.200,-182.129,-62.012,-15.625,-163.086,0.000,0
1641445064.204,-224.121,-80.566,-37.109,-227.539,0.000,0
1641445064.208,-38.574,-31.250,27.344,-61.523,0.000,0
1641445064.212,89.844,16.602,71.777,71.289,0.000,0
1641445064.216,-112.305,-36.621,6.348,-123.535,0.000,0
1641445064.220,-240.234,-83.008,-40.527,-256.348,0.000,0
1641445064.224,-90.332,-46.387,-11.719,-104.004,0.000,0
1641445064.228,89.355,12.695,40.039,88.379,0.000,0
1641445064.232,-54.199,-21.973,20.508,-53.711,0.000,0
1641445064.236,-238.281,-85.938,-19.043,-246.582,0.000,0
1641445064.240,-146.973,-68.359,-3.906,-169.434,0.000,0
1641445064.237,76.660,4.395,69.336,56.641,0.000,0
1641445064.241,1.465,-1.465,65.430,24.902,0.000,0
1641445064.245,-225.098,-67.383,-25.879,-197.754,0.000,0
1641445064.249,-204.102,-73.730,-34.668,-200.684,0.000,0
1641445064.253,5.371,-16.602,32.227,6.836,0.000,0
1641445064.257,56.152,6.348,58.105,87.402,0.000,0
1641445064.261,-164.551,-57.129,-37.109,-134.766,0.000,0
1641445064.264,-230.957,-82.520,-63.965,-226.074,0.000,0
1641445064.268,-55.176,-26.855,29.785,-65.918,0.000,0
1641445064.272,93.262,11.719,88.867,92.773,0.000,0
1641445064.276,-102.539,-46.875,28.809,-84.473,0.000,0
1641445064.280,-245.605,-89.844,-24.902,-241.699,0.000,0
1641445064.278,-110.840,-50.293,1.953,-126.465,0.000,0
1641445064.282,88.867,8.789,72.754,85.938,0.000,0
1641445064.286,-45.898,-19.043,42.480,-16.602,0.000,0
1641445064.290,-250.000,-71.777,-23.926,-222.656,0.000,0
1641445064.294,-171.387,-61.035,-10.254,-177.246,0.000,0
1641445064.298,55.176,-9.277,40.039,39.551,0.000,0
1641445064.301,24.902,-19.531,41.016,37.109,0.000,0
1641445064.305,-203.613,-65.430,-11.719,-194.824,0.000,0
1641445064.309,-206.055,-64.941,-20.996,-229.004,0.000,0
1641445064.313,4.395,-24.414,29.297,-17.090,0.000,0
1641445064.317,74.219,5.859,66.895,77.148,0.000,0
1641445064.321,-154.297,-43.457,10.254,-148.926,0.000,0
1641445064.319,-228.027,-78.613,-25.391,-236.816,0.000,0
1641445064.323,-62.988,-45.410,14.648,-75.684,0.000,0
1641445064.327,88.379,5.859,65.430,86.426,0.000,0
1641445064.331,-93.262,-37.109,15.625,-84.961,0.000,0
1641445064.335,-246.582,-78.613,-31.250,-249.512,0.000,0
1641445064.339,-126.953,-57.617,-6.836,-133.789,0.000,0
1641445064.343,77.637,1.953,60.547,80.566,0.000,0
1641445064.347,-17.090,1.465,46.875,-18.555,0.000,0
1641445064.351,-220.215,-56.641,-26.367,-220.215,0.000,0
1641445064.354,-171.875,-64.941,-29.785,-181.152,0.000,0
1641445064.358,43.945,-6.348,36.133,26.855,0.000,0
1641445064.362,34.180,10.742,55.664,38.086,0.000,0
1641445064.362,-195.801,-53.711,-3.418,-186.035,0.000,0
1641445064.366,-217.285,-74.707,-14.160,-224.609,0.000,0
1641445064.370,-33.691,-16.113,36.621,-38.574,0.000,0
1641445064.374,57.617,12.695,73.242,70.312,0.000,0
1641445064.378,-142.578,-54.199,8.789,-144.043,0.000,0
1641445064.381,-234.863,-85.938,-34.180,-251.465,0.000,0
1641445064.385,-78.125,-48.340,11.230,-99.609,0.000,0
1641445064.389,88.379,3.418,68.359,72.266,0.000,0
1641445064.393,-84.473,-41.016,24.902,-76.172,0.000,0
1641445064.397,-251.465,-91.309,-39.062,-251.465,0.000,0
1641445064.401,-152.832,-52.246,-18.066,-171.387,0.000,0
1641445064.405,59.570,18.555,64.453,47.852,0.000,0
1641445064.405,-10.254,-5.371,51.758,-15.137,0.000,0
1641445064.409,-222.168,-74.219,-21.484,-237.793,0.000,0
1641445064.412,-203.613,-69.336,-18.555,-218.262,0.000,0
1641445064.416,9.277,-20.020,42.480,6.348,0.000,0
1641445064.420,30.273,-14.648,57.129,42.480,0.000,0
1641445064.424,-202.637,-72.754,-6.836,-198.242,0.000,0
1641445064.428,-234.863,-81.543,-26.855,-245.605,0.000,0
1641445064.432,-37.598,-27.832,27.344,-58.594,0.000,0
1641445064.436,89.844,0.977,73.242,79.590,0.000,0
1641445064.440,-119.629,-51.758,15.137,-113.770,0.000,0
1641445064.444,-242.676,-78.125,-27.344,-250.000,0.000,0
1641445064.448,-95.215,-52.734,9.277,-117.676,0.000,0
1641445064.448,79.102,1.465,75.684,69.824,0.000,0
1641445064.452,-65.430,-24.414,33.691,-65.918,0.000,0
1641445064.455,-243.652,-76.172,-33.203,-252.441,0.000,0
1641445064.459,-147.949,-50.293,-4.395,-161.133,0.000,0
1641445064.463,38.086,-7.324,56.641,29.785,0.000,0
1641445064.467,-38.086,-27.344,38.086,-30.273,0.000,0
1641445064.471,-214.844,-73.730,-20.020,-212.402,0.000,0
1641445064.475,-203.125,-84.961,-19.043,-210.938,0.000,0
1641445064.479,-0.488,-36.621,38.574,0.488,0.000,0
1641445064.483,42.480,2.441,72.754,53.223,0.000,0
1641445064.487,-184.082,-50.781,4.395,-183.105,0.000,0
1641445064.490,-232.910,-83.496,-30.762,-233.398,0.000,0
1641445064.491,-43.457,-30.273,26.367,-61.523,0.000,0
1641445064.495,87.891,20.508,80.566,80.078,0.000,0
1641445064.499,-115.234,-32.227,20.996,-100.098,0.000,0
1641445064.502,-245.117,-80.078,-36.133,-241.699,0.000,0
1641445064.506,-106.934,-49.805,2.930,-120.605,0.000,0
1641445064.510,84.473,9.766,78.125,75.684,0.000,0
1641445064.514,-40.527,-12.695,41.504,-31.250,0.000,0
1641445064.518,-236.816,-84.961,-42.969,-226.074,0.000,0
1641445064.522,-172.363,-78.613,-19.531,-178.711,0.000,0
1641445064.526,51.758,5.859,65.918,32.715,0.000,0
1641445064.530,16.113,5.371,57.617,21.973,0.000,0
1641445064.533,-214.844,-65.430,-12.695,-206.055,0.000,0
1641445064.534,-214.355,-71.777,-15.137,-213.867,0.000,0
1641445064.538,-14.648,-20.996,36.621,-16.602,0.000,0
1641445064.542,59.570,4.395,67.383,66.895,0.000,0
1641445064.546,-157.227,-49.316,4.883,-150.391,0.000,0
1641445064.549,-240.234,-74.707,-28.809,-242.676,0.000,0
1641445064.553,-66.895,-33.691,16.113,-71.289,0.000,0
1641445064.557,84.473,4.395,70.312,81.543,0.000,0
1641445064.561,-95.215,-45.410,17.090,-86.426,0.000,0
1641445064.565,-242.676,-77.148,-38.086,-234.863,0.000,0
1641445064.569,-123.535,-41.016,-11.230,-140.625,0.000,0
1641445064.573,89.355,7.324,56.152,63.477,0.000,0
1641445064.577,-16.602,-17.090,39.551,-19.531,0.000,0
1641445064.577,-235.840,-67.871,-23.438,-233.887,0.000,0
1641445064.581,-186.035,-57.617,-20.996,-198.730,0.000,0
1641445064.585,40.527,-5.371,41.504,26.855,0.000,0
1641445064.589,33.203,-4.883,48.340,41.016,0.000,0
1641445064.593,-203.125,-65.430,-24.414,-194.824,0.000,0
1641445064.597,-229.004,-78.125,-38.574,-244.629,0.000,0
1641445064.600,-22.461,-37.598,19.531,-39.551,0.000,0
1641445064.604,69.824,-0.488,57.617,81.055,0.000,0
1641445064.608,-152.832,-37.598,-1.465,-140.137,0.000,0
1641445064.612,-244.629,-81.055,-45.410,-240.234,0.000,0
1641445064.616,-76.172,-45.410,3.418,-84.961,0.000,0
1641445064.620,97.168,9.277,73.730,85.449,0.000,0
1641445064.620,-82.031,-27.832,30.273,-67.871,0.000,0
1641445064.624,-250.488,-75.195,-32.227,-244.629,0.000,0
1641445064.628,-142.090,-61.035,-13.672,-157.227,0.000,0
1641445064.632,70.801,4.395,63.477,62.500,0.000,0
1641445064.636,-14.160,-1.953,53.711,0.000,0.000,0
1641445064.640,-222.656,-72.266,-21.484,-218.262,0.000,0
1641445064.644,-178.223,-83.984,-32.715,-188.965,0.000,0
1641445064.647,37.109,-19.531,32.715,34.180,0.000,0
1641445064.651,50.781,2.441,56.152,51.270,0.000,0
1641445064.655,-198.730,-62.988,-20.508,-200.684,0.000,0
1641445064.659,-227.539,-75.195,-36.133,-253.418,0.000,0
1641445064.663,-29.297,-20.996,28.320,-65.430,0.000,0
1641445064.664,69.824,14.160,69.824,62.988,0.000,0
1641445064.668,-133.301,-32.715,1.465,-123.535,0.000,0
1641445064.671,-243.164,-65.918,-43.945,-246.582,0.000,0
1641445064.675,-91.309,-30.273,-3.906,-125.977,0.000,0
1641445064.679,100.586,14.160,58.594,62.988,0.000,0
1641445064.683,-56.152,-31.250,15.137,-57.129,0.000,0
1641445064.687,-240.234,-71.777,-51.270,-243.164,0.000,0
1641445064.691,-151.855,-43.945,-36.621,-176.270,0.000,0
1641445064.695,58.105,10.254,46.875,45.898,0.000,0
1641445064.698,3.418,-15.625,49.805,12.695,0.000,0
1641445064.702,-222.656,-80.566,-35.156,-216.309,0.000,0
1641445064.706,-198.730,-65.918,-28.809,-215.820,0.000,0
1641445064.708,21.973,-14.648,42.969,-8.301,0.000,0
1641445064.712,64.941,-2.441,60.547,64.453,0.000,0
1641445064.716,-171.875,-57.129,-5.859,-165.039,0.000,0
1641445064.720,-226.562,-76.172,-37.109,-258.301,0.000,0
1641445064.724,-35.645,-32.227,0.977,-83.008,0.000,0
1641445064.727,92.285,6.348,45.410,78.613,0.000,0
1641445064.731,-116.211,-39.551,1.465,-94.727,0.000,0
1641445064.735,-247.070,-73.242,-28.809,-233.887,0.000,0
1641445064.739,-112.305,-39.551,7.324,-119.629,0.000,0
1641445064.743,83.496,7.812,58.594,84.961,0.000,0
1641445064.747,-41.504,-18.066,34.180,-33.691,0.000,0
1641445064.751,-231.934,-69.824,-27.344,-244.629,0.000,0
1641445064.753,-153.809,-55.664,-29.785,-169.434,0.000,0
1641445064.757,60.059,0.000,41.504,44.922,0.000,0
1641445064.760,18.555,0.488,51.270,12.695,0.000,0
1641445064.764,-210.449,-59.570,-20.996,-212.891,0.000,0
1641445064.768,-221.680,-76.660,-37.109,-230.469,0.000,0
1641445064.772,-17.090,-27.832,23.438,-33.203,0.000,0
1641445064.776,59.082,1.465,66.406,56.152,0.000,0
1641445064.780,-165.527,-41.992,9.766,-149.902,0.000,0
1641445064.783,-233.887,-78.613,-40.527,-230.469,0.000,0
1641445064.787,-57.129,-46.875,-8.301,-68.848,0.000,0
1641445064.791,94.727,16.113,64.941,74.707,0.000,0
1641445064.795,-96.680,-23.926,28.320,-99.609,0.000,0
1641445064.797,-251.953,-73.730,-28.809,-248.047,0.000,0
1641445064.801,-120.117,-46.387,2.930,-139.160,0.000,0
1641445064.805,89.355,12.695,75.195,70.801,0.000,0
1641445064.809,-25.879,-12.695,42.480,-10.742,0.000,0
1641445064.813,-237.305,-74.219,-36.133,-219.238,0.000,0
1641445064.816,-174.316,-65.918,-33.203,-188.965,0.000,0
1641445064.820,56.152,0.000,39.062,29.785,0.000,0
1641445064.824,44.434,7.324,52.246,41.504,0.000,0
1641445064.828,-191.895,-66.406,-25.879,-178.711,0.000,0
1641445064.832,-203.613,-69.824,-36.133,-202.148,0.000,0
1641445064.836,3.906,-9.766,29.785,-29.785,0.000,0
1641445064.839,78.613,9.766,58.105,64.453,0.000,0
1641445064.842,-153.809,-48.340,-7.324,-144.531,0.000,0
1641445064.845,-239.258,-74.707,-39.551,-246.582,0.000,0
1641445064.849,-81.055,-32.715,4.883,-97.656,0.000,0
1641445064.853,87.891,16.113,63.965,72.266,0.000,0
1641445064.857,-79.102,-20.020,16.113,-69.824,0.000,0
1641445064.861,-242.188,-69.336,-46.387,-224.121,0.000,0
1641445064.865,-132.324,-41.016,-14.160,-145.508,0.000,0
1641445064.869,77.637,9.766,44.922,59.570,0.000,0
1641445064.872,-13.672,-17.090,23.926,3.906,0.000,0
1641445064.876,-237.793,-57.617,-23.926,-217.285,0.000,0
1641445064.880,-193.359,-49.316,-15.137,-189.941,0.000,0
1641445064.884,31.250,2.441,48.340,26.367,0.000,0
1641445064.886,42.480,11.230,63.477,48.828,0.000,0
1641445064.890,-194.336,-43.457,-5.859,-172.852,0.000,0
1641445064.894,-231.934,-63.965,-27.832,-221.680,0.000,0
1641445064.898,-27.832,-17.090,33.691,-40.527,0.000,0
1641445064.902,79.102,24.902,74.219,80.078,0.000,0
1641445064.905,-132.324,-33.691,5.859,-122.559,0.000,0
1641445064.909,-227.051,-84.961,-38.086,-244.629,0.000,0
1641445064.913,-79.590,-59.082,-0.977,-111.328,0.000,0
1641445064.917,90.332,14.648,62.988,80.078,0.000,0
1641445064.921,-61.523,-10.254,22.949,-56.641,0.000,0
1641445064.925,-233.398,-72.266,-34.180,-250.488,0.000,0
1641445064.928,-143.066,-45.410,-16.602,-179.688,0.000,0
1641445064.931,58.105,14.648,50.293,38.086,0.000,0
1641445064.935,-5.371,-12.695,42.969,-7.812,0.000,0
1641445064.938,-218.262,-77.637,-40.039,-224.121,0.000,0
1641445064.942,-200.195,-69.824,-38.086,-223.145,0.000,0
1641445064.946,0.977,-4.883,43.457,-30.762,0.000,2
1641445064.950,32.715,-1.953,55.176,32.227,0.000,0
1641445064.954,-188.477,-83.496,-24.902,-164.551,0.000,0
1641445064.958,-237.305,-90.332,-39.062,-229.492,0.000,0
1641445064.961,-54.199,-17.578,31.738,-66.406,0.000,0
1641445064.965,90.820,17.578,81.543,82.520,0.000,0
1641445064.969,-103.027,-34.180,13.184,-112.305,0.000,0
1641445064.973,-256.348,-75.195,-35.645,-254.395,0.000,0
1641445064.975,-125.000,-47.852,5.859,-138.184,0.000,0
1641445064.979,74.707,6.348,65.430,57.617,0.000,0
1641445064.983,-59.082,-25.879,26.855,-43.945,0.000,0
1641445064.987,-251.465,-81.055,-44.922,-240.723,0.000,0
1641445064.990,-174.805,-72.754,-30.762,-190.430,0.000,0
1641445064.994,41.016,-19.531,42.480,30.273,0.000,0
1641445064.998,-0.488,-26.367,42.480,29.297,0.000,0
1641445065.002,-224.609,-79.102,-40.039,-203.125,0.000,0
1641445065.006,-223.633,-74.707,-42.969,-231.934,0.000,0
1641445065.010,-9.766,-19.531,41.992,-22.949,0.000,0
1641445065.013,61.035,4.395,75.684,59.082,0.000,0
1641445065.017,-171.875,-44.434,7.812,-159.668,0.000,0
1641445065.020,-237.793,-62.012,-19.043,-246.094,0.000,0
1641445065.024,-49.805,-23.438,16.113,-81.543,0.000,0
1641445065.028,82.520,16.113,57.129,77.148,0.000,0
1641445065.032,-113.770,-34.668,12.695,-98.633,0.000,0
1641445065.036,-250.977,-83.496,-41.016,-253.418,0.000,0
1641445065.040,-126.465,-57.617,-17.578,-148.926,0.000,0
1641445065.043,83.984,0.977,57.617,63.477,0.000,0
1641445065.047,-25.391,-15.625,40.527,-28.320,0.000,0
1641445065.051,-234.863,-68.359,-35.156,-244.141,0.000,0
1641445065.055,-170.410,-68.848,-32.227,-195.312,0.000,0
1641445065.059,61.523,-4.395,50.781,29.297,0.000,0
1641445065.063,47.363,5.859,69.824,26.855,0.000,0
1641445065.066,-201.172,-59.570,-9.277,-204.590,0.000,0
1641445065.070,-214.355,-70.312,-31.250,-239.258,0.000,0
1641445065.073,-6.348,-25.879,23.926,-49.316,0.000,0
1641445065.077,72.266,6.836,59.570,64.453,0.000,0
1641445065.081,-145.508,-43.457,-2.930,-133.301,0.000,0
1641445065.085,-233.398,-74.219,-33.691,-231.445,0.000,0
1641445065.089,-63.965,-31.250,17.578,-91.797,0.000,0
1641445065.093,94.238,16.602,71.289,70.312,0.000,0
1641445065.096,-74.707,-30.762,26.367,-76.660,0.000,0
1641445065.100,-232.910,-75.195,-32.715,-241.211,0.000,0
1641445065.104,-135.742,-44.922,-12.695,-153.809,0.000,0
1641445065.108,62.988,9.766,59.082,49.805,0.000,0
1641445065.111,-19.531,-14.160,38.574,-14.648,0.000,0
1641445065.115,-225.586,-74.707,-26.855,-211.426,0.000,0
1641445065.119,-187.988,-56.641,-20.020,-194.824,0.000,0
1641445065.123,37.598,0.000,48.340,16.113,0.000,0
1641445065.126,34.180,0.488,57.617,44.434,0.000,0
1641445065.130,-204.102,-61.523,-26.855,-185.059,0.000,0
1641445065.134,-222.656,-71.289,-36.621,-232.422,0.000,0
1641445065.138,-26.855,-21.973,28.320,-57.129,0.000,0
1641445065.142,82.031,0.000,54.199,70.801,0.000,0
1641445065.146,-132.812,-55.664,-15.137,-126.953,0.000,0
1641445065.149,-249.512,-81.055,-41.504,-257.324,0.000,0
1641445065.153,-97.168,-45.898,-2.930,-120.605,0.000,0
1641445065.156,77.148,11.230,59.082,71.289,0.000,0
1641445065.160,-77.637,-17.578,30.762,-57.617,0.000,0
1641445065.164,-249.023,-69.824,-29.297,-239.746,0.000,0
1641445065.168,-149.414,-60.059,-14.160,-156.250,0.000,0
1641445065.172,55.176,-10.742,47.852,45.898,0.000,0
1641445065.176,-19.531,-22.461,38.086,-15.137,0.000,0
1641445065.179,-230.469,-82.520,-35.156,-232.910,0.000,0
1641445065.183,-204.102,-85.938,-43.457,-227.051,0.000,0
1641445065.187,16.602,-24.902,27.832,0.488,0.000,0
1641445065.191,50.293,-1.465,56.641,54.199,0.000,0
1641445065.195,-183.105,-56.152,-6.836,-174.805,0.000,0
1641445065.199,-228.027,-74.707,-30.273,-232.422,0.000,0
1641445065.202,-53.223,-30.762,10.254,-62.012,0.000,0
1641445065.206,74.707,4.395,53.711,84.961,0.000,0
1641445065.209,-122.070,-53.223,0.000,-99.609,0.000,0
1641445065.213,-252.441,-88.867,-41.992,-235.352,0.000,0
1641445065.217,-107.422,-49.316,3.418,-110.840,0.000,0
1641445065.221,76.660,0.977,69.824,96.680,0.000,0
1641445065.225,-52.246,-29.785,33.691,-15.625,0.000,0
1641445065.229,-242.188,-88.867,-42.969,-224.609,0.000,0
1641445065.232,-178.223,-64.941,-25.391,-168.945,0.000,0
1641445065.236,34.180,9.277,55.664,37.598,0.000,0
1641445065.240,2.441,-11.230,52.246,24.414,0.000,0
1641445065.244,-223.633,-80.078,-30.273,-192.383,0.000,0
1641445065.247,-221.680,-79.102,-43.945,-212.402,0.000,0
1641445065.251,-1.465,-16.602,26.367,-14.160,0.000,0
1641445065.255,64.453,7.812,55.664,63.965,0.000,0
1641445065.259,-168.457,-63.477,-9.277,-152.832,0.000,0
1641445065.262,-227.051,-90.820,-38.086,-221.680,0.000,0
1641445065.266,-47.852,-42.969,9.277,-60.547,0.000,0
1641445065.270,88.379,-1.465,53.711,71.289,0.000,0
1641445065.274,-93.262,-50.781,-7.324,-95.215,0.000,0
1641445065.278,-244.141,-82.031,-42.969,-242.188,0.000,0
1641445065.281,-125.977,-46.875,-0.977,-135.742,0.000,0
1641445065.285,80.566,-0.977,62.500,80.566,0.000,0
1641445065.289,-26.855,-23.926,37.598,-18.066,0.000,0
1641445065.292,-219.727,-65.430,-28.809,-223.633,0.000,0
1641445065.296,-161.133,-53.223,-18.066,-183.105,0.000,0
1641445065.300,49.805,-4.395,43.945,39.062,0.000,0
1641445065.304,29.785,-6.348,41.504,39.551,0.000,0
1641445065.308,-194.336,-71.777,-23.926,-192.383,0.000,0
1641445065.311,-199.219,-78.125,-41.016,-216.797,0.000,0
1641445065.315,-1.953,-24.902,7.324,-28.320,0.000,0
1641445065.319,76.660,-1.465,47.363,70.312,0.000,0
1641445065.323,-145.996,-43.457,-6.348,-134.766,0.000,0
1641445065.327,-237.305,-62.500,-40.527,-230.957,0.000,0
1641445065.331,-64.453,-19.043,0.488,-73.730,0.000,0
1641445065.334,102.539,29.297,63.477,105.957,0.000,0
1641445065.337,-65.918,-11.230,16.602,-60.059,0.000,0
1641445065.341,-217.773,-58.594,-45.410,-228.516,0.000,0
1641445065.345,-110.352,-31.250,-19.043,-127.441,0.000,0
1641445065.349,86.914,25.391,53.223,79.590,0.000,0
1641445065.353,-12.207,3.906,29.297,0.488,0.000,0
1641445065.357,-216.797,-59.570,-46.387,-212.891,0.000,0
1641445065.360,-171.875,-69.824,-42.969,-183.105,0.000,0
1641445065.364,38.086,-16.113,34.180,17.090,0.000,0
1641445065.368,44.434,5.371,53.711,55.176,0.000,0
1641445065.372,-176.270,-49.316,-28.320,-152.832,0.000,0
1641445065.376,-197.754,-67.383,-42.480,-217.773,0.000,0
1641445065.380,-19.531,-17.090,21.484,-52.734,0.000,0
1641445065.383,85.449,19.043,64.453,78.125,0.000,0
1641445065.386,-123.047,-40.039,2.441,-118.164,0.000,0
1641445065.390,-234.375,-69.824,-37.598,-237.793,0.000,0
1641445065.394,-83.008,-25.391,9.277,-105.469,0.000,0
1641445065.398,92.773,15.625,70.312,84.473,0.000,0
1641445065.402,-58.105,-39.062,17.090,-36.133,0.000,0
1641445065.406,-230.957,-84.473,-46.875,-230.469,0.000,0
1641445065.409,-130.371,-41.504,-9.766,-163.086,0.000,0
1641445065.413,83.984,15.137,55.176,61.035,0.000,0
1641445065.417,4.395,-12.207,33.203,12.207,0.000,0
1641445065.421,-219.727,-66.406,-26.855,-212.402,0.000,0
1641445065.425,-189.453,-55.176,-21.973,-201.660,0.000,0
1641445065.429,20.996,-1.465,36.621,-0.977,0.000,0
1641445065.432,47.852,1.953,46.875,51.270,0.000,0
1641445065.436,-180.664,-56.152,-17.578,-166.504,0.000,0
1641445065.440,-230.957,-61.523,-30.762,-244.141,0.000,0
1641445065.444,-42.480,-17.090,21.973,-63.477,0.000,0
1641445065.448,85.449,9.277,63.965,82.520,0.000,0
1641445065.451,-111.328,-35.156,8.789,-119.629,0.000,0
1641445065.455,-235.352,-61.523,-33.691,-250.000,0.000,0
1641445065.459,-95.703,-36.133,-0.977,-122.559,0.000,0
1641445065.463,87.891,15.137,56.152,73.730,0.000,0
1641445065.467,-51.758,-3.418,27.832,-43.457,0.000,0
1641445065.471,-235.352,-57.129,-35.645,-236.816,0.000,0
1641445065.474,-156.250,-49.316,-23.926,-174.316,0.000,0
1641445065.478,50.293,0.977,49.316,43.457,0.000,0
1641445065.482,-4.883,-7.324,47.363,13.184,0.000,0
1641445065.486,-212.402,-61.035,-20.996,-216.309,0.000,0
1641445065.490,-206.543,-69.824,-31.250,-235.352,0.000,0
1641445065.493,-4.395,-17.090,26.855,-25.391,0.000,0
1641445065.497,65.918,12.695,57.129,67.383,0.000,0
1641445065.501,-159.668,-40.527,-2.441,-151.367,0.000,0
1641445065.505,-221.680,-70.801,-39.062,-235.352,0.000,0
1641445065.509,-55.176,-31.738,7.812,-67.871,0.000,0
1641445065.513,69.824,15.137,69.824,83.008,0.000,0
1641445065.516,-108.887,-35.645,10.742,-97.656,0.000,0
1641445065.520,-233.887,-76.660,-41.992,-249.512,0.000,0
1641445065.524,-114.258,-50.293,-10.254,-140.625,0.000,0
1641445065.528,65.918,3.906,53.711,69.824,0.000,0
1641445065.532,-47.852,-25.879,36.133,-30.273,0.000,0
1641445065.535,-235.840,-78.613,-29.785,-243.164,0.000,0
1641445065.539,-171.875,-60.547,-27.832,-199.219,0.000,0
1641445065.543,32.227,-5.371,36.133,10.254,0.000,0
1641445065.547,15.625,-5.859,38.574,12.207,0.000,0
1641445065.551,-198.730,-64.941,-28.809,-203.125,0.000,0
1641445065.555,-216.797,-70.312,-36.621,-236.328,0.000,0
1641445065.558,-11.719,-15.137,29.297,-27.832,0.000,0
1641445065.562,63.965,1.465,60.547,85.938,0.000,0
1641445065.566,-161.133,-62.988,-11.230,-141.113,0.000,0
1641445065.570,-236.816,-68.359,-34.180,-251.953,0.000,0
1641445065.574,-66.895,-22.461,9.766,-86.914,0.000,0
1641445065.577,90.820,13.672,55.664,97.656,0.000,0
1641445065.581,-90.332,-26.855,12.695,-70.801,0.000,0
1641445065.585,-246.582,-73.730,-43.945,-260.742,0.000,0
1641445065.589,-141.602,-51.758,-17.090,-170.410,0.000,0
1641445065.593,51.758,2.441,50.293,62.988,0.000,0
1641445065.597,-38.574,-18.555,26.855,-15.137,0.000,0
1641445065.600,-234.375,-66.406,-29.297,-250.000,0.000,0
1641445065.604,-189.941,-58.594,-22.461,-218.750,0.000,0
1641445065.608,17.578,-3.906,41.504,18.555,0.000,0
1641445065.612,35.156,10.254,59.082,50.781,0.000,0
1641445065.616,-181.152,-51.758,-12.207,-180.176,0.000,0
1641445065.619,-200.684,-72.266,-28.320,-209.473,0.000,0
1641445065.623,-22.461,-11.230,27.832,-30.762,0.000,0
1641445065.627,58.105,24.414,66.895,71.289,0.000,0
1641445065.631,-138.672,-42.969,1.953,-131.836,0.000,0
1641445065.635,-229.492,-81.543,-39.551,-240.723,0.000,0
1641445065.638,-69.824,-44.434,-2.441,-79.102,0.000,0
1641445065.642,97.656,12.695,68.359,119.629,0.000,0
1641445065.646,-64.453,-20.020,41.992,-40.039,0.000,0
1641445065.650,-221.191,-68.848,-29.297,-234.375,0.000,0
1641445065.654,-114.746,-45.410,-12.207,-137.695,0.000,0
1641445065.657,91.309,10.254,58.105,89.844,0.000,0
1641445065.661,13.672,-12.207,45.410,15.625,0.000,0
1641445065.665,-200.195,-77.148,-27.832,-210.449,0.000,0
1641445065.669,-172.363,-70.801,-33.203,-194.336,0.000,0
1641445065.673,23.438,-14.160,28.809,10.742,0.000,0
1641445065.677,56.152,-6.836,49.316,63.477,0.000,0
1641445065.680,-163.574,-73.242,-17.578,-163.086,0.000,0
1641445065.684,-208.496,-86.914,-37.109,-230.469,0.000,0
1641445065.688,-23.438,-26.855,23.926,-49.316,0.000,0
1641445065.692,85.938,8.301,70.312,104.004,0.000,0
1641445065.696,-113.770,-45.898,6.836,-104.980,0.000,0
1641445065.699,-223.633,-76.172,-32.715,-248.535,0.000,0
1641445065.703,-79.102,-34.668,3.906,-110.352,0.000,0
1641445065.707,90.820,8.301,56.641,92.285,0.000,0
1641445065.711,-41.504,-32.227,20.508,-33.203,0.000,0
1641445065.715,-217.285,-84.961,-33.203,-236.816,0.000,0
1641445065.718,-142.578,-68.359,-9.766,-177.734,0.000,0
1641445065.722,62.988,-6.836,57.617,54.688,0.000,0
1641445065.726,17.578,-16.602,45.898,42.480,0.000,0
1641445065.730,-187.988,-71.289,-22.461,-193.848,0.000,0
1641445065.734,-186.035,-64.941,-20.508,-212.402,0.000,0
1641445065.737,18.555,-9.277,40.039,5.859,0.000,0
1641445065.741,75.684,17.090,65.918,86.914,0.000,0
1641445065.745,-153.809,-41.016,0.977,-140.625,0.000,0
1641445065.749,-209.473,-73.242,-22.461,-211.914,0.000,0
1641445065.753,-41.992,-40.527,19.531,-47.363,0.000,0
1641445065.756,77.148,0.000,64.941,106.934,0.000,0
1641445065.760,-106.934,-35.156,21.973,-75.684,0.000,0
1641445065.764,-226.074,-73.242,-32.715,-239.258,0.000,0
1641445065.768,-95.703,-60.059,-10.742,-117.188,0.000,0
1641445065.772,91.309,-8.789,52.734,85.449,0.000,0
1641445065.775,-21.973,-20.020,35.156,-27.344,0.000,0
1641445065.779,-201.172,-75.195,-32.227,-236.816,0.000,0
1641445065.783,-134.277,-65.918,-26.855,-184.570,0.000,0
1641445065.787,68.848,2.930,47.363,46.875,0.000,0
1641445065.791,32.715,3.906,50.781,38.086,0.000,0
1641445065.795,-195.312,-66.406,-25.879,-201.172,0.000,0
1641445065.799,-198.730,-73.242,-34.668,-225.098,0.000,0
1641445065.803,-4.395,-17.578,35.645,-20.996,0.000,0
1641445065.806,60.547,9.277,70.312,83.496,0.000,0
1641445065.810,-164.062,-46.875,2.441,-139.160,0.000,0
1641445065.814,-240.723,-78.613,-40.039,-244.141,0.000,1
1641445065.818,-70.312,-40.527,3.418,-91.797,0.000,0
1641445065.822,92.773,17.578,70.801,86.426,0.000,0
1641445065.826,-68.848,-23.438,22.949,-72.754,0.000,0
1641445065.829,-230.469,-78.613,-45.410,-245.605,0.000,0
1641445065.833,-138.672,-50.293,-14.160,-148.438,0.000,0
1641445065.837,56.152,0.488,54.199,72.754,0.000,0
1641445065.841,-27.344,-21.973,32.715,2.930,0.000,0
1641445065.845,-227.539,-72.266,-29.785,-213.379,0.000,0
1641445065.849,-184.082,-62.988,-19.043,-187.012,0.000,0
1641445065.853,23.926,-10.742,46.387,42.480,0.000,0
1641445065.856,26.855,-7.324,54.688,62.500,0.000,0
1641445065.860,-181.641,-57.129,-19.043,-178.223,0.000,0
1641445065.864,-201.660,-60.547,-31.250,-219.727,0.000,0
1641445065.868,-14.648,-11.719,24.414,-37.598,0.000,0
1641445065.872,99.121,8.789,47.852,105.957,0.000,0
1641445065.876,-108.398,-53.223,-1.465,-100.098,0.000,0
1641445065.879,-229.980,-79.102,-18.066,-247.070,0.000,0
1641445065.883,-77.637,-35.156,17.578,-88.379,0.000,0
1641445065.887,86.914,10.742,76.172,108.398,0.000,0
1641445065.891,-54.199,-30.762,37.109,-41.504,0.000,0
1641445065.895,-205.078,-75.195,-20.020,-233.398,0.000,0
1641445065.899,-136.230,-50.293,2.441,-152.832,0.000,0
1641445065.903,49.316,-0.488,54.688,51.270,0.000,0
1641445065.906,-14.160,-16.113,32.227,-7.324,0.000,0
1641445065.910,-208.984,-77.148,-33.203,-224.121,0.000,0
1641445065.914,-171.387,-83.008,-30.273,-212.891,0.000,0
1641445065.918,31.250,-25.391,37.109,17.090,0.000,0
1641445065.922,30.273,-6.348,64.453,62.012,0.000,0
1641445065.926,-192.871,-59.570,-3.906,-176.270,0.000,0
1641445065.929,-227.051,-78.613,-35.645,-232.910,0.000,0
1641445065.933,-44.434,-32.227,23.438,-55.664,0.000,0
1641445065.937,77.148,10.254,73.730,80.078,0.000,0
1641445065.941,-115.723,-36.621,13.184,-109.375,0.000,0
1641445065.945,-239.746,-75.195,-41.016,-246.094,0.000,0
1641445065.949,-109.375,-42.480,-7.324,-115.234,0.000,0
1641445065.953,65.430,3.906,64.453,76.660,0.000,0
1641445065.956,-63.477,-25.391,34.180,-57.129,0.000,0
1641445065.960,-225.586,-83.496,-31.738,-251.465,0.000,0
1641445065.964,-147.461,-75.684,-22.461,-177.734,0.000,0
1641445065.968,45.410,-4.883,52.734,37.598,0.000,0
1641445065.972,0.000,-11.230,54.688,18.066,0.000,0
1641445065.975,-208.008,-72.754,-15.625,-201.660,0.000,0
1641445065.979,-195.312,-68.848,-19.531,-228.027,0.000,0
1641445065.983,6.836,-10.254,39.551,-1.465,0.000,0
1641445065.987,57.617,4.883,60.059,76.660,0.000,0
1641445065.991,-161.621,-50.293,-6.348,-180.664,0.000,0
1641445065.995,-226.074,-75.684,-29.297,-262.207,0.000,0
1641445065.999,-57.129,-41.504,19.531,-82.031,0.000,0
1641445066.002,74.219,-6.348,59.570,72.754,0.000,0
1641445066.006,-100.098,-61.523,-0.977,-106.934,0.000,0
1641445066.010,-231.934,-94.238,-45.898,-261.230,0.000,0
1641445066.014,-128.418,-51.758,-2.930,-160.156,0.000,0
1641445066.018,63.477,-1.953,58.105,46.387,0.000,0
1641445066.022,-42.480,-29.297,27.344,-45.898,0.000,0
1641445066.026,-238.770,-75.195,-33.691,-246.582,0.000,0
1641445066.029,-171.387,-59.570,-16.602,-207.031,0.000,0
1641445066.033,37.598,-1.953,50.293,19.531,0.000,0
1641445066.037,-1.465,-1.465,41.016,14.648,0.000,0
1641445066.041,-216.309,-75.195,-33.691,-228.516,0.000,0
1641445066.045,-209.473,-90.820,-46.387,-239.258,0.000,0
1641445066.048,0.977,-28.320,8.789,-12.695,0.000,0
1641445066.052,94.238,12.207,53.223,110.352,0.000,0
1641445066.056,-138.672,-28.809,14.160,-137.207,0.000,0
1641445066.060,-268.066,-60.547,-27.832,-278.809,0.000,0
1641445066.064,-111.328,-36.133,0.488,-119.629,0.000,0
1641445066.068,52.246,-11.719,61.035,51.758,0.000,0
1641445066.071,-133.301,-53.223,18.066,-134.277,0.000,0
1641445066.075,-289.062,-84.961,-48.340,-317.871,0.000,0
1641445066.079,-179.688,-55.176,-20.508,-214.355,0.000,0
1641445066.083,5.371,-1.465,53.711,-11.230,0.000,0
1641445066.087,-101.562,-24.902,3.906,-95.215,0.000,0
1641445066.091,-309.082,-87.891,-72.754,-295.898,0.000,0
1641445066.094,-270.508,-103.516,-45.898,-277.344,0.000,0
1641445066.098,-57.617,-41.992,26.367,-60.547,0.000,0
1641445066.102,-68.359,-23.438,40.527,-43.457,0.000,0
1641445066.106,-288.574,-83.496,-34.180,-289.062,0.000,0
1641445066.110,-288.574,-87.891,-47.852,-318.848,0.000,0
1641445066.113,-85.449,-29.297,16.602,-100.098,0.000,0
1641445066.117,17.578,6.836,50.781,23.926,0.000,0
1641445066.121,-181.152,-49.316,-10.742,-169.434,0.000,0
1641445066.125,-279.297,-80.566,-44.922,-282.715,0.000,0
1641445066.129,-114.258,-40.039,3.906,-139.160,0.000,0
1641445066.133,48.340,8.301,61.523,45.410,0.000,0
1641445066.136,-116.211,-38.574,9.277,-93.262,0.000,0
1641445066.140,-264.160,-86.426,-46.387,-258.789,0.000,0
1641445066.144,-171.387,-62.988,-23.926,-183.105,0.000,0
1641445066.148,39.062,-12.207,47.852,41.992,0.000,0
1641445066.152,-19.043,-28.809,24.414,-2.930,0.000,0
1641445066.156,-237.305,-85.449,-46.875,-236.328,0.000,0
1641445066.159,-221.191,-80.566,-37.109,-240.723,0.000,0
1641445105.546,-62.988,-30.762,-16.113,-56.152,0.000,0
1641445105.550,-54.199,-26.367,-13.672,-45.410,0.000,0
1641445105.554,-76.660,-29.785,-11.719,-67.871,0.000,0
1641445105.558,-85.938,-29.785,-11.719,-71.777,0.000,0
1641445105.562,-67.383,-32.715,-12.695,-58.105,0.000,0
1641445105.565,-47.852,-33.691,-14.160,-38.574,0.000,0
1641445105.569,-79.590,-32.715,-11.719,-52.734,0.000,0
1641445105.573,-105.469,-30.273,-9.766,-71.289,0.000,0
1641445105.577,-79.590,-30.273,-1.953,-59.570,0.000,0
1641445105.581,-51.270,-32.227,-2.441,-56.152,0.000,0
1641445105.585,-78.613,-32.227,-9.277,-76.660,0.000,0
1641445105.588,-94.238,-47.363,-20.508,-73.730,0.000,0
1641445105.593,-78.125,-41.504,-15.625,-60.547,0.000,0
1641445105.597,-50.781,-20.020,0.488,-61.523,0.000,0
1641445105.601,-50.781,-20.020,-0.977,-52.734,0.000,0
1641445105.605,-80.566,-21.973,-5.371,-62.500,0.000,0
1641445105.609,-87.402,-25.391,-8.301,-72.754,0.000,0
1641445105.613,-58.594,-31.738,-8.789,-46.387,0.000,0
1641445105.617,-40.527,-34.180,-6.836,-39.062,0.000,0
1641445105.620,-76.660,-33.203,-7.812,-72.754,0.000,0
1641445105.624,-80.566,-20.020,-12.207,-75.195,0.000,0
1641445105.628,-44.922,-10.254,-14.160,-55.176,0.000,0
1641445105.632,-40.527,-17.578,-8.789,-40.039,0.000,0
1641445105.636,-68.848,-21.973,-2.930,-56.641,0.000,0
1641445105.644,-82.520,-26.855,-6.348,-75.195,0.000,0
1641445105.648,-71.289,-28.320,-12.695,-72.266,0.000,0
1641445105.652,-48.340,-24.414,-12.695,-50.293,0.000,0
1641445105.656,-56.152,-22.949,-10.254,-59.082,0.000,1
1641445105.660,-75.195,-21.484,-6.836,-70.312,0.000,0
1641445105.664,-68.359,-18.066,-3.418,-59.570,0.000,0
1641445105.668,-41.504,-32.715,-16.602,-45.410,0.000,0
1641445105.672,-40.039,-37.109,-23.438,-41.992,0.000,0
1641445105.676,-63.477,-18.555,-9.766,-69.336,0.000,0
1641445105.680,-70.801,-18.555,-11.230,-71.289,0.000,0
1641445105.684,-55.176,-20.996,-10.742,-58.594,0.000,0
1641445105.688,-41.992,-19.531,-9.277,-52.734,0.000,0
1641445105.701,-69.824,-21.484,-18.066,-65.918,0.000,0
1641445105.705,-73.730,-19.531,-12.695,-74.219,0.000,0
1641445105.709,-50.781,-7.812,-0.977,-65.430,0.000,0
1641445105.713,-38.086,-8.789,-7.324,-43.457,0.000,0
1641445105.717,-58.594,-22.949,-9.766,-61.035,0.000,0
1641445105.722,-85.938,-27.832,-9.277,-75.684,0.000,0
1641445105.726,-70.312,-25.879,-14.648,-66.895,0.000,0
1641445105.730,-37.109,-24.414,-14.648,-50.293,0.000,0
1641445105.734,-49.316,-17.578,-8.301,-55.176,0.000,0
1641445105.738,-80.078,-14.160,-5.859,-73.242,0.000,0
1641445105.742,-85.449,-14.648,-0.977,-73.242,0.000,0
1641445105.747,-57.617,-16.113,0.977,-56.152,0.000,0
1641445105.762,-49.316,-13.184,-1.953,-48.828,0.000,0
1641445105.766,-74.707,-26.855,-12.207,-65.918,0.000,0
1641445105.770,-75.195,-38.086,-20.020,-58.105,0.000,0
1641445105.775,-52.246,-24.414,-15.625,-44.922,0.000,0
1641445105.779,-42.969,-19.531,-13.672,-41.504,0.000,0
1641445105.783,-71.289,-21.973,-16.113,-64.453,0.000,0
1641445105.788,-80.078,-20.996,-17.578,-73.730,0.000,0
1641445105.792,-72.266,-20.996,-13.184,-67.383,0.000,0
1641445105.796,-57.129,-23.438,-11.230,-53.711,0.000,0
1641445105.801,-63.965,-21.973,-8.301,-53.223,0.000,0
1641445105.805,-85.449,-21.484,-11.719,-67.871,0.000,0
1641445105.809,-72.754,-29.297,-10.742,-74.219,0.000,0
1641445105.826,-45.410,-34.668,-5.859,-56.641,0.000,0
1641445105.830,-55.664,-25.879,-7.812,-55.664,0.000,0
1641445105.835,-79.102,-24.414,-4.883,-65.430,0.000,0
1641445105.839,-80.566,-32.715,0.977,-62.988,0.000,0
1641445105.844,-64.941,-34.668,-5.371,-51.270,0.000,0
1641445105.848,-55.664,-35.156,-18.066,-47.852,0.000,0
1641445105.853,-75.195,-33.691,-16.113,-62.988,0.000,0
1641445105.858,-88.867,-29.785,-12.695,-67.871,0.000,0
1641445105.862,-59.082,-37.598,-15.137,-49.316,0.000,0
1641445105.867,-35.156,-42.480,-23.926,-26.855,0.000,0
1641445105.871,-70.801,-25.391,-14.648,-53.711,0.000,0
1641445105.876,-87.891,-16.113,-1.953,-73.242,0.000,0
1641445105.893,-70.312,-20.508,-0.488,-57.129,0.000,0
1641445105.898,-45.898,-15.625,6.836,-41.992,0.000,0
1641445105.902,-63.965,-15.625,0.000,-57.129,0.000,0
1641445105.907,-85.938,-21.484,-4.395,-78.125,0.000,0
1641445105.912,-77.637,-27.832,-4.883,-68.848,0.000,0
1641445105.916,-60.547,-33.203,-15.625,-58.594,0.000,0
1641445105.921,-69.824,-29.785,-18.555,-80.078,0.000,0
1641445105.926,-97.656,-24.902,-12.207,-82.520,0.000,0
1641445105.930,-84.961,-22.949,-4.883,-69.824,0.000,0
1641445105.935,-53.711,-27.832,-7.324,-61.035,0.000,0
1641445105.940,-57.129,-26.855,-13.184,-53.223,0.000,0
1641445105.944,-86.426,-16.113,-8.789,-69.336,0.000,0
1641445105.962,-90.820,-11.719,-9.766,-78.125,0.000,0
1641445105.967,-74.707,-16.602,-12.207,-58.105,0.000,0
1641445105.972,-54.688,-17.090,-9.766,-50.781,0.000,0
1641445105.977,-79.102,-20.020,-9.277,-63.965,0.000,0
1641445105.982,-97.168,-37.598,-15.625,-64.453,0.000,0
1641445105.986,-78.613,-34.180,-16.113,-66.895,0.000,0
1641445105.991,-57.617,-21.973,-12.207,-53.711,0.000,0
1641445105.996,-71.777,-26.855,-10.742,-65.430,0.000,0
1641445106.001,-90.820,-26.367,-7.324,-83.496,0.000,0
1641445106.006,-88.379,-20.996,-12.695,-70.312,0.000,0
1641445106.010,-74.219,-16.113,-11.230,-54.688,0.000,0
1641445106.015,-69.824,-24.414,-13.672,-65.918,0.000,0
1641445106.026,-90.820,-37.109,-16.113,-78.613,0.000,0
1641445106.030,-94.727,-35.156,-1.465,-66.895,0.000,0
1641445106.035,-66.895,-28.320,2.441,-57.617,0.000,0
1641445106.040,-50.293,-27.344,-5.371,-55.664,0.000,0
1641445106.045,-76.172,-28.809,-11.230,-75.195,0.000,0
1641445106.050,-84.961,-32.227,-20.508,-84.473,0.000,0
1641445106.055,-73.242,-29.297,-18.555,-65.918,0.000,0
1641445106.060,-47.852,-21.973,-6.348,-49.805,0.000,0
1641445106.064,-54.688,-20.996,-6.836,-62.988,0.000,0
1641445106.069,-90.332,-26.855,-20.996,-76.660,0.000,0
1641445106.074,-83.984,-31.250,-16.113,-74.219,0.000,0
1641445106.079,-58.594,-46.387,-12.207,-49.316,0.000,0
1641445106.083,-65.918,-42.969,-12.695,-62.988,0.000,0
1641445106.088,-92.285,-20.020,-2.930,-93.262,0.000,0
1641445106.093,-84.961,-16.602,-7.812,-90.332,0.000,0
1641445106.098,-55.664,-21.973,-15.625,-69.824,0.000,0
1641445106.102,-43.457,-20.508,-9.277,-50.293,0.000,0
1641445106.107,-73.730,-18.555,-6.348,-67.871,0.000,0
1641445106.112,-89.355,-21.484,-5.859,-80.078,0.000,0
1641445106.117,-69.824,-23.926,-5.371,-64.453,0.000,0
1641445106.122,-62.500,-26.367,-9.277,-56.152,0.000,0
1641445106.127,-82.520,-22.949,-6.836,-77.148,0.000,0
1641445106.132,-87.891,-15.625,-2.441,-77.637,0.000,0
1641445106.136,-69.824,-21.484,-2.930,-59.570,0.000,0
1641445106.135,-48.340,-23.926,-6.836,-52.734,0.000,0
1641445106.140,-72.266,-20.996,-11.719,-65.918,0.000,0
1641445106.145,-93.262,-22.949,-4.395,-75.684,0.000,0
1641445106.150,-80.078,-24.902,-4.395,-66.895,0.000,0
1641445106.155,-49.805,-24.414,-8.789,-47.852,0.000,0
1641445106.159,-47.852,-23.926,-15.137,-59.082,0.000,0
1641445106.164,-78.613,-34.668,-27.344,-75.195,0.000,0
1641445106.169,-76.660,-33.203,-22.949,-70.312,0.000,0
1641445106.174,-61.523,-20.508,-5.859,-71.777,0.000,0
1641445106.179,-56.641,-21.484,-5.371,-70.801,0.000,0
1641445106.183,-77.637,-25.391,-7.324,-80.566,0.000,0
1641445106.188,-83.008,-31.250,-3.906,-83.984,0.000,0
1641445106.183,-53.711,-25.879,-3.418,-72.754,0.000,0
1641445106.188,-35.156,-24.902,-8.301,-62.012,0.000,0
1641445106.193,-64.941,-30.762,-11.230,-71.777,0.000,0
1641445106.197,-78.613,-31.250,-9.766,-76.172,0.000,0
1641445106.202,-62.988,-31.738,-12.695,-66.406,0.000,0
1641445106.207,-40.527,-31.250,-19.043,-49.805,0.000,0
1641445106.212,-52.246,-32.227,-19.531,-57.617,0.000,0
1641445106.216,-71.777,-29.297,-15.625,-76.172,0.000,0
1641445106.221,-70.801,-28.809,-17.578,-75.195,0.000,0
1641445106.226,-49.316,-26.855,-20.996,-61.523,0.000,0
1641445106.231,-58.105,-25.879,-14.648,-62.988,0.000,0
1641445106.235,-84.473,-28.809,-4.883,-73.730,0.000,0
1641445106.227,-83.496,-29.785,0.000,-72.266,0.000,0
1641445106.231,-56.152,-41.992,-10.742,-53.711,0.000,0
1641445106.236,-51.758,-49.805,-19.043,-48.340,0.000,0
1641445106.241,-92.285,-36.621,-4.395,-64.453,0.000,0
1641445106.245,-90.332,-22.949,3.418,-68.359,0.000,0
1641445106.250,-69.336,-18.066,-8.789,-64.941,0.000,0
1641445106.255,-53.223,-18.555,-12.207,-47.363,0.000,0
1641445106.259,-63.965,-19.043,-7.812,-62.988,0.000,0
1641445106.264,-79.102,-13.184,-4.395,-76.172,0.000,0
1641445106.269,-75.684,-9.277,-1.465,-68.359,0.000,0
1641445106.273,-55.176,-20.996,1.465,-50.293,0.000,0
1641445106.278,-64.941,-26.367,6.348,-55.664,0.000,0
1641445106.267,-91.309,-30.273,3.418,-74.707,0.000,0
1641445106.272,-87.402,-31.738,-3.906,-77.148,0.000,0
1641445106.276,-62.012,-21.484,-3.418,-64.453,0.000,0
1641445106.281,-40.527,-16.602,2.441,-55.664,0.000,0
1641445106.285,-69.336,-17.578,-2.930,-71.777,0.000,0
1641445106.290,-83.496,-18.555,-11.719,-73.242,0.000,0
1641445106.294,-64.941,-18.555,-12.695,-59.570,0.000,0
1641445106.299,-57.129,-20.020,-9.277,-55.664,0.000,0
1641445106.304,-77.148,-30.273,-9.277,-72.266,0.000,0
1641445106.308,-90.332,-33.203,-18.555,-69.336,0.000,0
1641445106.313,-75.684,-23.926,-10.742,-60.547,0.000,0
1641445106.317,-51.758,-19.043,0.977,-61.523,0.000,0
1641445106.304,-62.012,-26.855,-4.395,-65.918,0.000,0
1641445106.309,-83.984,-40.039,-14.160,-75.684,0.000,0
1641445106.313,-70.801,-29.297,-8.789,-76.172,0.000,0
1641445106.318,-47.363,-19.531,0.000,-64.941,0.000,0
1641445106.322,-74.707,-34.180,-13.672,-71.777,0.000,0
1641445106.327,-103.516,-45.410,-24.414,-79.102,0.000,0
1641445106.331,-87.891,-31.738,-14.160,-67.383,0.000,0
1641445106.335,-67.383,-25.391,-5.371,-56.152,0.000,0
1641445106.340,-61.035,-41.016,-12.695,-50.293,0.000,0
1641445106.344,-81.055,-44.922,-8.301,-53.711,0.000,0
1641445106.349,-99.121,-28.809,2.930,-73.730,0.000,0
1641445106.353,-78.125,-21.484,-8.301,-70.801,0.000,0
1641445106.340,-52.734,-38.086,-22.461,-57.617,0.000,0
1641445106.344,-83.008,-43.945,-21.973,-72.754,0.000,0
1641445106.349,-106.445,-28.320,-14.160,-90.820,0.000,0
1641445106.353,-81.543,-28.809,-5.859,-82.520,0.000,0
1641445106.358,-54.199,-41.992,-8.789,-55.176,0.000,0
1641445106.362,-77.637,-41.992,-11.719,-62.500,0.000,0
1641445106.366,-95.215,-24.414,5.371,-77.637,0.000,0
1641445106.371,-73.242,-18.555,5.859,-58.594,0.000,0
1641445106.375,-44.922,-27.344,-7.812,-27.344,0.000,0
1641445106.379,-50.781,-18.555,-4.883,-46.387,0.000,0
1641445106.384,-68.359,4.395,7.812,-69.824,0.000,0
1641445106.388,-58.594,-6.348,0.488,-57.129,0.000,0
1641445106.376,-45.898,-29.785,-9.277,-44.434,0.000,0
1641445106.381,-45.898,-21.484,-2.441,-42.969,0.000,0
1641445106.385,-69.336,-14.160,4.395,-57.617,0.000,0
1641445106.389,-83.496,-28.320,-4.395,-65.918,0.000,0
1641445106.394,-74.707,-32.227,-14.648,-58.105,0.000,0
1641445106.398,-50.781,-25.391,-2.930,-52.246,0.000,0
1641445106.402,-70.801,-24.902,0.977,-59.082,0.000,0
1641445106.406,-87.402,-37.109,-16.602,-63.477,0.000,0
1641445106.411,-66.406,-31.250,-16.602,-71.289,0.000,0
1641445106.415,-50.293,-20.508,-4.395,-59.082,0.000,0
1641445106.419,-67.383,-32.715,-13.184,-56.641,0.000,0
1641445106.424,-91.309,-31.250,-12.695,-75.684,0.000,0
1641445106.413,-83.008,-24.902,-4.883,-69.336,0.000,0
1641445106.418,-58.105,-22.949,-3.906,-52.734,0.000,0
1641445106.422,-58.105,-31.738,-6.348,-60.547,0.000,0
1641445106.426,-80.566,-30.762,-0.977,-71.289,0.000,0
1641445106.430,-80.566,-20.508,-0.977,-71.777,0.000,0
1641445106.435,-50.781,-26.367,-11.230,-69.824,0.000,0
1641445106.439,-42.480,-29.785,-14.160,-64.453,0.000,0
1641445106.443,-70.312,-26.367,-24.902,-65.430,0.000,0
1641445106.447,-83.008,-17.578,-20.508,-71.777,0.000,0
1641445106.451,-68.848,-16.602,-6.836,-74.219,0.000,0
1641445106.456,-51.270,-27.832,-14.160,-64.453,0.000,0
1641445106.460,-66.406,-31.250,-17.090,-67.383,0.000,0
1641445106.451,-86.426,-26.367,-17.578,-84.473,0.000,0
1641445106.455,-78.613,-32.715,-21.484,-77.148,0.000,0
1641445106.459,-52.734,-39.551,-20.996,-56.152,0.000,0
1641445106.463,-62.012,-33.203,-13.672,-65.918,0.000,1
1641445106.467,-86.426,-26.367,-9.277,-74.219,0.000,0
1641445106.472,-79.590,-27.344,-5.859,-61.035,0.000,0
1641445106.476,-55.664,-36.621,-10.742,-47.363,0.000,0
1641445106.480,-60.547,-33.691,-12.695,-46.387,0.000,0
1641445106.484,-90.820,-20.996,-3.906,-71.777,0.000,0
1641445106.488,-85.938,-22.949,-5.859,-75.195,0.000,0
1641445106.492,-61.523,-26.855,-9.766,-60.547,0.000,0
1641445106.497,-57.129,-23.926,-4.883,-53.223,0.000,0
1641445106.489,-82.031,-21.973,-6.348,-74.219,0.000,0
1641445106.493,-84.961,-22.461,-9.277,-67.383,0.000,0
1641445106.497,-53.223,-18.066,-5.371,-54.199,0.000,0
1641445106.501,-30.762,-14.160,-5.371,-54.199,0.000,0
1641445106.505,-59.570,-23.438,-6.348,-60.059,0.000,0
1641445106.509,-74.707,-26.367,-8.789,-67.383,0.000,0
1641445106.513,-60.059,-24.902,-16.113,-64.453,0.000,0
1641445106.517,-46.875,-20.996,-8.301,-53.223,0.000,0
1641445106.522,-63.965,-16.113,-2.930,-63.965,0.000,0
1641445106.526,-87.402,-25.391,-7.812,-82.520,0.000,0
1641445106.530,-73.730,-29.785,-7.812,-70.312,0.000,0
1641445106.534,-46.875,-24.902,-6.348,-52.246,0.000,0
1641445106.528,-53.223,-19.043,-4.395,-50.293,0.000,0
1641445106.532,-81.055,-23.926,-6.836,-61.523,0.000,0
1641445106.536,-82.520,-24.902,-7.812,-76.660,0.000,0
1641445106.540,-60.547,-17.578,-10.254,-64.453,0.000,0
1641445106.544,-37.109,-13.184,-15.625,-41.992,0.000,0
1641445106.549,-62.500,-23.438,-23.438,-60.547,0.000,0
1641445106.553,-88.379,-35.645,-17.578,-68.359,0.000,0
1641445106.557,-76.660,-29.297,-4.395,-62.988,0.000,0
1641445106.561,-57.129,-24.902,-9.766,-57.617,0.000,0
1641445106.565,-68.848,-29.785,-6.348,-59.082,0.000,0
1641445106.569,-90.332,-30.273,1.465,-76.172,0.000,0
1641445106.573,-80.078,-24.902,-0.977,-77.148,0.000,0
1641445106.568,-45.410,-22.461,-3.906,-53.223,0.000,0
1641445106.572,-58.594,-14.648,-10.742,-56.152,0.000,0
1641445106.576,-95.215,-14.648,-13.672,-80.078,0.000,0
1641445106.580,-83.496,-26.367,-11.719,-75.684,0.000,0
1641445106.584,-59.570,-24.902,-13.184,-57.129,0.000,0
1641445106.588,-62.988,-26.367,-13.184,-65.918,0.000,0
1641445106.593,-87.402,-28.809,-7.812,-88.867,0.000,0
1641445106.597,-85.449,-22.949,2.441,-82.520,0.000,0
1641445106.601,-54.199,-26.855,5.371,-63.965,0.000,0
1641445106.605,-46.875,-32.227,-7.324,-57.129,0.000,0
1641445106.609,-71.777,-22.461,-10.254,-76.660,0.000,0
1641445106.613,-82.031,-14.160,0.488,-83.008,0.000,0
1641445106.609,-63.965,-32.227,-8.301,-67.871,0.000,0
1641445106.613,-39.062,-38.574,-15.137,-46.875,0.000,0
1641445106.617,-63.477,-28.809,-3.418,-57.617,0.000,0
1641445106.621,-88.867,-33.203,-2.441,-77.148,0.000,0
1641445106.625,-77.637,-33.691,-9.277,-65.430,0.000,0
1641445106.629,-45.898,-25.879,-9.766,-44.434,0.000,0
1641445106.633,-51.758,-19.531,-0.977,-52.734,0.000,0
1641445106.637,-80.078,-22.949,-2.441,-67.871,0.000,0
1641445106.641,-71.777,-32.715,-13.672,-65.430,0.000,0
1641445106.645,-46.387,-28.320,-10.254,-43.945,0.000,0
1641445106.649,-45.410,-12.207,-1.953,-36.621,0.000,0
1641445106.653,-65.918,-18.066,-1.953,-61.035,0.000,0
1641445106.649,-70.312,-26.855,-1.953,-67.871,0.000,0
1641445106.653,-62.012,-26.855,-7.324,-63.965,0.000,0
1641445106.657,-48.340,-20.020,-3.418,-51.758,0.000,0
1641445106.661,-57.617,-18.066,-1.465,-56.152,0.000,0
1641445106.665,-70.801,-25.391,-5.371,-64.941,0.000,0
1641445106.669,-63.965,-30.762,-9.277,-61.035,0.000,0
1641445106.673,-48.828,-25.391,-10.742,-54.199,0.000,0
1641445106.677,-62.988,-21.973,-9.766,-59.082,0.000,0
1641445106.681,-76.660,-25.391,-9.277,-62.500,0.000,0
1641445106.685,-70.312,-21.484,2.930,-65.918,0.000,0
1641445106.689,-50.293,-16.602,3.418,-52.734,0.000,0
1641445106.693,-54.688,-28.809,-7.812,-44.922,0.000,0
1641445106.690,-82.520,-35.156,-8.789,-74.219,0.000,0
1641445106.694,-79.102,-20.996,-1.953,-71.777,0.000,0
1641445106.698,-56.152,-16.113,5.859,-51.270,0.000,0
1641445106.702,-45.410,-23.926,2.441,-41.016,0.000,0
1641445106.706,-67.383,-24.902,-4.395,-51.270,0.000,0
1641445106.710,-82.520,-25.879,-6.836,-67.383,0.000,0
1641445106.714,-66.406,-30.273,-11.719,-59.082,0.000,0
1641445106.718,-48.340,-40.039,-13.672,-41.016,0.000,0
1641445106.722,-75.195,-44.922,-14.160,-52.734,0.000,0
1641445106.726,-101.074,-37.109,-13.672,-66.406,0.000,0
1641445106.730,-89.844,-33.691,-8.301,-67.871,0.000,0
1641445106.734,-62.500,-31.738,-5.859,-64.453,0.000,0
1641445106.732,-67.871,-25.391,-0.488,-62.500,0.000,0
1641445106.735,-98.633,-22.461,-0.488,-79.590,0.000,0
1641445106.739,-89.844,-25.391,-2.441,-86.914,0.000,0
1641445106.743,-60.059,-28.809,-2.441,-63.965,0.000,0
1641445106.747,-60.547,-29.785,-9.277,-66.895,0.000,0
1641445106.751,-85.938,-28.320,-14.160,-83.008,0.000,0
1641445106.755,-77.637,-22.949,-12.695,-68.848,0.000,0
1641445106.759,-56.152,-29.785,-14.160,-45.410,0.000,0
1641445106.763,-51.758,-28.320,-7.812,-30.762,0.000,0
1641445106.767,-67.871,-15.137,4.883,-53.711,0.000,0
1641445106.771,-71.777,-19.531,0.977,-66.406,0.000,0
1641445106.775,-51.758,-19.043,0.488,-57.617,0.000,0
1641445106.773,-50.781,-12.207,1.953,-39.551,0.000,0
1641445106.777,-71.289,-10.742,-6.348,-58.105,0.000,0
1641445106.781,-77.637,-14.160,-6.836,-80.078,0.000,0
1641445106.785,-61.035,-20.996,-0.488,-66.406,0.000,0
1641445106.789,-41.016,-23.438,0.000,-43.457,0.000,0
1641445106.793,-54.688,-21.973,-9.277,-37.598,0.000,0
1641445106.797,-84.473,-34.180,-21.484,-59.082,0.000,0
1641445106.800,-88.379,-37.598,-15.625,-67.383,0.000,0
1641445106.804,-59.570,-16.602,0.000,-50.781,0.000,0
1641445106.808,-44.922,-10.742,0.977,-45.898,0.000,0
1641445106.812,-75.684,-20.508,-5.371,-70.312,0.000,0
1641445106.816,-84.473,-17.090,-2.930,-64.453,0.000,0
1641445106.815,-58.105,-10.742,-6.348,-45.410,0.000,0
1641445106.818,-43.457,-27.344,-18.066,-41.992,0.000,0
1641445106.822,-73.242,-37.598,-23.926,-66.895,0.000,0
1641445106.826,-85.449,-29.785,-14.160,-83.496,0.000,0
1641445106.830,-62.012,-24.902,-8.301,-65.430,0.000,0
1641445106.834,-42.969,-27.832,-12.695,-47.852,0.000,0
1641445106.838,-61.035,-32.715,-15.625,-66.895,0.000,0
1641445106.842,-89.355,-25.879,-5.859,-81.055,0.000,0
1641445106.846,-83.984,-9.277,5.859,-69.824,0.000,0
1641445106.850,-52.246,-13.672,4.883,-41.504,0.000,0
1641445106.854,-58.105,-25.879,-2.441,-50.293,0.000,0
1641445106.858,-81.543,-21.484,-2.441,-73.730,0.000,0
1641445106.859,-72.754,-19.531,4.395,-64.941,0.000,0
1641445106.862,-49.805,-28.809,-0.488,-59.570,0.000,0
1641445106.866,-41.504,-31.250,-5.371,-59.570,0.000,0
1641445106.870,-65.918,-23.926,0.488,-61.035,0.000,0
1641445106.874,-67.383,-18.555,6.348,-66.895,0.000,0
1641445106.878,-47.852,-32.715,-3.418,-50.293,0.000,0
1641445106.882,-42.969,-33.203,-7.812,-31.738,0.000,0
1641445106.886,-62.988,-16.602,-2.441,-58.105,0.000,0
1641445106.890,-77.637,-19.531,-6.348,-68.848,0.000,0
1641445106.894,-71.777,-28.809,-7.812,-55.176,0.000,0
1641445106.898,-39.062,-23.926,-0.977,-51.758,0.000,0
1641445106.901,-50.781,-17.090,3.906,-53.711,0.000,0
1641445106.902,-82.520,-27.832,-3.906,-64.453,0.000,0
1641445106.905,-79.102,-39.551,-9.766,-65.918,0.000,0
1641445106.909,-57.129,-32.715,4.883,-49.316,0.000,0
1641445106.913,-56.641,-32.715,4.395,-58.594,0.000,0
1641445106.917,-84.961,-37.109,-10.254,-77.637,0.000,0
1641445106.921,-92.773,-37.109,-8.301,-76.172,0.000,0
1641445106.925,-64.453,-35.645,-4.395,-63.477,0.000,0
1641445106.929,-50.781,-31.738,-7.812,-57.129,0.000,0
1641445106.933,-91.309,-37.109,-6.348,-59.570,0.000,0
1641445106.937,-98.145,-35.645,-11.230,-61.035,0.000,0
1641445106.941,-67.871,-27.344,-5.371,-62.988,0.000,0
1641445106.944,-53.223,-22.949,0.488,-55.664,0.000,0
1641445106.945,-66.895,-31.250,-11.230,-55.176,0.000,0
1641445106.949,-81.543,-31.738,-10.254,-58.594,0.000,0
1641445106.952,-79.590,-19.043,1.953,-64.453,0.000,0
1641445106.956,-51.270,-28.809,-0.488,-53.223,0.000,0
1641445106.960,-59.570,-40.527,-8.301,-60.059,0.000,0
1641445106.964,-90.820,-39.551,-11.719,-80.566,0.000,0
1641445106.968,-78.613,-32.227,-11.719,-63.477,0.000,0
1641445106.972,-49.805,-28.320,-11.719,-48.828,0.000,0
1641445106.976,-49.316,-34.668,-18.066,-41.016,0.000,0
1641445106.980,-72.754,-32.715,-12.695,-50.781,0.000,0
1641445106.984,-93.262,-27.344,-6.348,-74.707,0.000,0
1641445106.987,-65.430,-37.109,-7.812,-62.500,0.000,0
1641445106.988,-41.016,-38.086,-5.371,-44.922,0.000,0
1641445106.992,-71.289,-31.250,-13.184,-65.430,0.000,0
1641445106.996,-76.660,-27.832,-17.578,-76.172,0.000,0
1641445107.000,-58.594,-27.832,-15.137,-66.895,0.000,0
1641445107.003,-41.016,-31.250,-11.719,-53.711,0.000,0
1641445107.007,-60.547,-28.809,-10.254,-59.570,0.000,0
1641445107.011,-87.891,-26.855,-12.695,-70.312,0.000,0
1641445107.015,-70.312,-28.320,-10.742,-69.336,0.000,0
1641445107.019,-41.016,-30.762,-11.719,-47.852,0.000,0
1641445107.023,-52.734,-25.879,-8.301,-52.246,0.000,0
1641445107.027,-66.406,-17.578,-1.953,-72.266,0.000,0
1641445107.031,-66.895,-20.508,-2.930,-63.965,0.000,0
1641445107.031,-48.340,-21.484,-3.418,-47.852,0.000,0
1641445107.035,-41.504,-23.438,-9.277,-60.547,0.000,0
1641445107.039,-71.777,-27.344,-10.254,-74.219,0.000,0
1641445107.043,-75.684,-29.297,-2.441,-68.359,0.000,0
1641445107.047,-61.035,-31.250,-3.418,-62.500,0.000,0
1641445107.051,-51.758,-34.180,-8.789,-53.223,0.000,0
1641445107.054,-67.383,-33.691,-11.719,-58.105,0.000,0
1641445107.058,-80.566,-37.598,-14.160,-65.430,0.000,0
1641445107.062,-73.242,-39.551,-10.742,-57.617,0.000,0
1641445107.066,-57.617,-30.762,-5.371,-52.246,0.000,0
1641445107.070,-75.195,-33.203,-10.254,-72.266,0.000,0
1641445107.074,-98.633,-31.738,-14.160,-83.496,0.000,0
1641445107.075,-81.543,-32.715,-15.137,-79.590,0.000,0
1641445107.079,-50.293,-34.668,-12.207,-62.500,0.000,0
1641445107.082,-57.129,-27.344,-9.277,-52.246,0.000,0
1641445107.086,-94.238,-23.438,-10.742,-75.684,0.000,0
1641445107.090,-88.379,-22.949,-6.836,-83.008,0.000,0
1641445107.094,-60.059,-24.414,-3.418,-58.105,0.000,0
1641445107.098,-52.246,-15.625,0.000,-43.945,0.000,0
1641445107.102,-76.660,-25.879,-2.930,-60.059,0.000,0
1641445107.106,-92.285,-26.855,-5.371,-88.867,0.000,0
1641445107.109,-64.453,-19.531,-0.977,-77.637,0.000,0
1641445107.113,-41.992,-33.203,-6.836,-56.641,0.000,0
1641445107.117,-66.895,-30.762,-9.277,-72.754,0.000,0
1641445107.118,-81.055,-14.160,0.000,-77.637,0.000,0
1641445107.122,-66.406,-15.625,7.324,-64.941,0.000,0
1641445107.126,-47.363,-20.508,0.000,-53.223,0.000,0
1641445107.130,-64.453,-24.902,-4.395,-70.801,0.000,0
1641445107.134,-84.473,-30.762,-0.977,-84.961,0.000,0
1641445107.137,-83.984,-28.320,-12.695,-79.102,0.000,0
1641445107.141,-55.664,-28.809,-21.484,-58.105,0.000,0
1641445107.145,-44.434,-27.344,-15.625,-51.270,0.000,0
1641445107.149,-76.172,-18.066,-3.418,-73.730,0.000,0
1641445107.153,-91.797,-21.973,-5.371,-72.754,0.000,0
1641445107.157,-67.383,-25.391,-7.324,-61.523,0.000,0
1641445107.161,-50.293,-28.809,-2.441,-65.430,0.000,0
1641445107.162,-81.055,-27.832,-2.441,-86.914,0.000,0
1641445107.165,-94.238,-28.809,-1.465,-92.285,0.000,0
1641445107.169,-79.102,-39.062,-16.113,-72.266,0.000,0
1641445107.173,-68.848,-39.062,-26.367,-64.941,0.000,0
1641445107.177,-76.172,-29.785,-23.438,-74.707,0.000,0
1641445107.181,-75.195,-27.832,-21.484,-71.289,0.000,0
1641445107.185,-67.383,-40.527,-22.461,-56.152,0.000,0
1641445107.189,-59.082,-41.992,-21.973,-45.898,0.000,0
1641445107.192,-67.871,-31.250,-13.672,-58.105,0.000,0
1641445107.196,-86.426,-29.785,-10.742,-69.824,0.000,0
1641445107.200,-83.008,-24.414,-14.160,-74.219,0.000,0
1641445107.204,-58.594,-19.531,-8.789,-58.105,0.000,0
1641445107.205,-57.129,-29.297,-6.836,-52.734,0.000,0
1641445107.209,-85.449,-31.250,-10.742,-71.777,0.000,0
1641445107.213,-96.191,-35.645,-10.742,-80.078,0.000,0
1641445107.217,-79.102,-43.457,-14.648,-80.078,0.000,0
1641445107.221,-67.871,-42.969,-20.508,-82.031,0.000,0
1641445107.224,-82.520,-51.270,-25.879,-85.938,0.000,0
1641445107.228,-78.125,-40.039,-20.020,-77.148,0.000,0
1641445107.232,-68.359,-21.973,-8.789,-69.336,0.000,0
1641445107.236,-56.152,-27.832,-11.230,-53.223,0.000,0
1641445107.240,-71.289,-39.551,-18.066,-61.523,0.000,0
1641445107.244,-95.703,-43.457,-21.973,-83.496,0.000,0
1641445107.247,-84.473,-39.062,-17.090,-88.867,0.000,0
1641445107.250,-52.246,-34.668,-9.766,-67.383,0.000,0
1641445107.254,-55.176,-30.273,-11.719,-62.988,0.000,0
1641445107.257,-84.473,-27.832,-15.625,-74.219,0.000,1
1641445107.261,-83.496,-20.996,-15.137,-78.125,0.000,0
1641445107.265,-43.945,-21.484,-19.531,-71.289,0.000,0
1641445107.269,-41.016,-30.762,-34.668,-64.453,0.000,0
1641445107.273,-77.637,-34.668,-29.297,-73.242,0.000,0
1641445107.277,-80.078,-35.645,-15.625,-68.848,0.000,0
1641445107.280,-53.223,-36.621,-14.648,-61.523,0.000,0
1641445107.284,-32.715,-42.969,-16.602,-61.523,0.000,0
1641445107.288,-71.289,-32.227,-12.207,-71.777,0.000,0
1641445107.292,-91.797,-24.414,-12.207,-78.613,0.000,0
1641445107.294,-71.289,-31.738,-12.207,-67.383,0.000,0
1641445107.298,-48.828,-36.133,-8.301,-45.410,0.000,0
1641445107.302,-59.082,-29.297,-4.395,-62.988,0.000,0
1641445107.306,-81.543,-29.297,-0.488,-83.984,0.000,0
1641445107.310,-78.125,-35.645,-8.301,-70.801,0.000,0
1641445107.314,-51.758,-33.203,-9.277,-42.969,0.000,0
1641445107.317,-60.547,-28.809,-0.977,-34.180,0.000,0
1641445107.321,-101.562,-27.832,-3.906,-67.871,0.000,0
1641445107.325,-87.891,-39.062,-17.578,-64.941,0.000,0
1641445107.329,-52.734,-34.668,-13.672,-45.898,0.000,0
1641445107.333,-61.035,-27.832,-2.441,-65.430,0.000,0
1641445107.337,-71.289,-30.273,-5.371,-68.359,0.000,0
1641445107.339,-79.102,-23.926,-7.324,-62.012,0.000,0
1641445107.343,-66.895,-25.391,-3.906,-62.012,0.000,0
1641445107.347,-43.945,-27.344,4.395,-48.828,0.000,0
1641445107.351,-60.547,-29.297,2.441,-50.781,0.000,0
1641445107.354,-79.102,-30.762,-0.977,-56.641,0.000,0
1641445107.358,-68.848,-30.762,-7.324,-63.965,0.000,0
1641445107.362,-37.598,-26.855,-9.277,-53.711,0.000,0
1641445107.366,-60.059,-32.715,-9.277,-43.945,0.000,0
1641445107.370,-96.680,-39.062,-12.695,-68.848,0.000,0
1641445107.374,-81.543,-24.902,-9.766,-93.750,0.000,0
1641445107.377,-49.316,-21.484,-11.230,-74.219,0.000,0
1641445107.381,-56.152,-35.156,-19.043,-62.012,0.000,0
1641445107.384,-75.684,-33.203,-15.625,-65.430,0.000,0
1641445107.388,-73.730,-26.855,-10.742,-77.637,0.000,0
1641445107.391,-55.664,-27.832,-8.789,-60.547,0.000,0
1641445107.395,-54.688,-33.203,-11.719,-41.504,0.000,0
1641445107.399,-86.426,-40.039,-15.625,-65.430,0.000,0
1641445107.403,-100.098,-41.504,-20.020,-74.219,0.000,0
1641445107.407,-84.473,-33.203,-17.090,-62.500,0.000,0
1641445107.411,-60.059,-38.086,-16.113,-42.480,0.000,0
1641445107.414,-73.730,-36.133,-9.277,-51.758,0.000,0
1641445107.418,-94.727,-20.020,0.977,-66.406,0.000,0
1641445107.422,-78.613,-22.949,-6.836,-62.988,0.000,0
1641445107.426,-54.199,-33.203,-8.301,-62.012,0.000,0
1641445107.428,-74.219,-38.574,-5.859,-66.406,0.000,0
1641445107.432,-93.262,-32.227,-1.465,-75.684,0.000,0
1641445107.436,-83.496,-27.344,-4.883,-71.289,0.000,0
1641445107.440,-58.105,-24.902,-15.137,-51.758,0.000,0
1641445107.444,-62.988,-27.344,-16.602,-61.523,0.000,0
1641445107.448,-94.727,-34.180,-15.625,-76.660,0.000,0
1641445107.451,-84.473,-31.738,-19.043,-72.266,0.000,0
1641445107.455,-59.082,-33.691,-22.461,-68.848,0.000,0
1641445107.459,-60.059,-29.297,-18.066,-65.918,0.000,0
1641445107.463,-85.938,-27.832,-8.301,-76.172,0.000,0
1641445107.467,-86.426,-41.016,-9.766,-73.730,0.000,0
1641445107.470,-73.242,-39.551,-15.137,-59.082,0.000,0
1641445107.473,-61.523,-30.273,-8.789,-62.500,0.000,0
1641445107.477,-71.777,-31.250,-12.695,-76.172,0.000,0
1641445107.481,-86.426,-31.250,-20.996,-74.707,0.000,0
1641445107.485,-78.125,-29.785,-15.625,-77.637,0.000,0
1641445107.488,-50.293,-28.809,-13.184,-62.500,0.000,0
1641445107.492,-49.316,-34.180,-15.625,-55.664,0.000,0
1641445107.496,-78.125,-42.480,-17.578,-55.664,0.000,0
1641445107.500,-77.148,-41.992,-16.602,-60.547,0.000,0
1641445107.504,-58.594,-21.973,-8.301,-52.246,0.000,0
1641445107.508,-58.105,-20.508,-9.277,-44.922,0.000,0
1641445107.511,-82.520,-28.809,-15.625,-74.707,0.000,0
1641445107.515,-91.309,-22.949,-13.672,-85.449,0.000,0
1641445107.518,-65.918,-19.531,-10.742,-65.918,0.000,0
1641445107.522,-40.039,-27.832,-15.137,-47.852,0.000,0
1641445107.525,-61.035,-33.203,-22.949,-71.289,0.000,0
1641445107.529,-81.055,-24.902,-16.113,-86.426,0.000,0
1641445107.533,-60.547,-18.066,-5.859,-67.871,0.000,0
1641445107.537,-34.180,-19.531,-8.789,-50.293,0.000,0
1641445107.541,-55.176,-29.297,-12.695,-52.734,0.000,0
1641445107.544,-83.984,-20.508,-6.836,-70.312,0.000,0
1641445107.548,-74.707,-10.742,-2.930,-66.895,0.000,0
1641445107.552,-45.898,-19.043,-7.324,-35.645,0.000,0
1641445107.556,-54.688,-19.531,-9.766,-50.293,0.000,0
1641445107.560,-81.055,-16.602,-4.883,-81.543,0.000,0
1641445107.562,-80.078,-20.020,1.953,-73.242,0.000,0
1641445107.566,-58.594,-26.855,-3.906,-53.711,0.000,0
1641445107.570,-55.664,-24.902,-10.742,-55.664,0.000,0
1641445107.574,-83.008,-14.160,-6.348,-65.430,0.000,0
1641445107.578,-84.473,-16.113,-4.395,-57.617,0.000,0
1641445107.581,-60.059,-29.785,-14.648,-59.082,0.000,0
1641445107.585,-44.922,-31.250,-14.648,-55.664,0.000,0
1641445107.589,-75.684,-19.531,-5.859,-59.082,0.000,0
1641445107.593,-92.285,-22.461,-6.348,-76.660,0.000,0
1641445107.597,-71.289,-37.598,-16.113,-71.289,0.000,0
1641445107.601,-50.293,-29.785,-9.766,-54.688,0.000,0
1641445107.604,-64.941,-20.508,-4.395,-61.035,0.000,0
1641445107.608,-86.426,-30.762,-14.160,-73.242,0.000,0
1641445107.612,-74.219,-31.738,-18.066,-71.777,0.000,0
1641445107.615,-49.316,-24.902,-12.695,-59.082,0.000,0
1641445107.619,-61.523,-22.461,-4.395,-66.406,0.000,0
1641445107.623,-84.961,-23.438,-7.324,-74.707,0.000,0
1641445107.627,-83.984,-35.156,-20.508,-81.055,0.000,0
1641445107.631,-68.848,-31.250,-19.531,-74.219,0.000,0
1641445107.635,-64.941,-20.020,-11.230,-67.383,0.000,0
1641445107.638,-88.379,-22.949,-15.137,-89.844,0.000,0
1641445107.642,-100.586,-24.902,-17.578,-90.820,0.000,0
1641445107.646,-84.473,-18.555,-13.672,-82.031,0.000,0
1641445107.650,-57.129,-19.043,-13.184,-65.430,0.000,0
1641445107.653,-67.871,-21.973,-14.648,-67.871,0.000,0
1641445107.657,-89.355,-21.973,-11.230,-81.543,0.000,0
1641445107.661,-81.543,-20.020,-5.859,-73.730,0.000,0
1641445107.665,-56.152,-17.578,-6.836,-52.246,0.000,0
1641445107.669,-61.523,-20.020,-11.719,-61.035,0.000,0
1641445107.672,-82.031,-21.484,-11.719,-81.055,0.000,0
1641445107.676,-76.660,-21.484,-11.719,-76.172,0.000,0
1641445107.680,-55.176,-20.508,-11.719,-64.453,0.000,0
1641445107.684,-48.828,-33.203,-13.184,-57.129,0.000,0
1641445107.688,-87.402,-36.133,-11.230,-75.195,0.000,0
1641445107.691,-104.492,-24.902,-5.859,-93.750,0.000,0
1641445107.695,-70.801,-21.484,-6.836,-65.430,0.000,0
1641445107.699,-54.199,-21.484,-3.906,-51.270,0.000,0
1641445107.703,-77.637,-24.414,-4.883,-81.055,0.000,0
1641445107.706,-90.820,-15.137,-7.812,-85.938,0.000,0
1641445107.710,-71.289,-18.555,-10.742,-80.078,0.000,0
1641445107.714,-54.688,-25.391,-7.324,-55.664,0.000,0
1641445107.718,-68.359,-19.531,-0.977,-51.758,0.000,0
1641445107.722,-77.637,-21.484,0.000,-75.684,0.000,0
1641445107.725,-71.777,-31.250,-8.301,-75.195,0.000,0
1641445107.729,-48.828,-34.668,-18.555,-53.711,0.000,0
1641445107.733,-63.477,-24.414,-10.742,-60.059,0.000,0
1641445107.737,-100.098,-16.602,-7.812,-81.055,0.000,0
1641445107.741,-93.750,-24.902,-17.090,-78.613,0.000,0
1641445107.744,-64.941,-27.344,-11.719,-61.523,0.000,0
1641445107.748,-62.988,-18.555,-1.953,-55.664,0.000,0
1641445107.752,-85.449,-20.996,-1.465,-69.824,0.000,0
1641445107.756,-90.332,-32.227,-10.742,-80.566,0.000,0
1641445107.759,-67.871,-31.738,-10.742,-54.199,0.000,0
1641445107.763,-55.176,-32.227,-5.859,-38.086,0.000,0
1641445107.767,-75.684,-30.762,-4.395,-69.336,0.000,0
1641445107.771,-83.008,-28.809,-12.207,-68.359,0.000,0
1641445107.775,-66.406,-29.297,-19.531,-51.270,0.000,0
1641445107.779,-58.105,-18.555,-6.836,-50.293,0.000,0
1641445107.782,-77.637,-22.949,-8.789,-63.965,0.000,0
1641445107.786,-90.820,-32.227,-18.555,-66.895,0.000,0
1641445107.790,-88.867,-28.320,-19.531,-67.871,0.000,0
1641445107.793,-64.941,-25.879,-7.812,-61.035,0.000,0
1641445107.797,-62.012,-30.273,0.488,-53.711,0.000,0
1641445107.801,-78.613,-24.902,-3.418,-68.359,0.000,0
1641445107.805,-84.473,-27.832,-14.160,-80.566,0.000,0
1641445107.809,-59.082,-31.250,-17.578,-74.707,0.000,0
1641445107.812,-54.199,-33.691,-16.602,-71.289,0.000,0
1641445107.816,-86.426,-40.527,-18.555,-68.848,0.000,0
1641445107.820,-85.449,-29.297,-11.230,-64.941,0.000,0
1641445107.824,-65.918,-24.902,-5.859,-61.035,0.000,0
1641445107.828,-61.523,-31.250,-8.789,-53.711,0.000,0
1641445107.832,-82.520,-32.715,-7.324,-63.965,0.000,0
1641445107.835,-88.867,-30.762,-6.348,-64.453,0.000,0
1641445107.839,-75.195,-35.156,-13.184,-65.430,0.000,0
1641445107.843,-62.012,-37.598,-12.695,-65.430,0.000,0
1641445107.846,-73.242,-28.809,-10.254,-66.895,0.000,0
1641445107.850,-99.121,-30.762,-14.648,-79.102,0.000,0
1641445107.854,-88.379,-43.945,-19.043,-81.543,0.000,0
1641445107.858,-50.293,-45.410,-18.066,-58.594,0.000,0
1641445107.862,-42.480,-40.527,-20.508,-59.570,0.000,0
1641445107.865,-85.938,-38.086,-16.602,-91.797,0.000,0
1641445107.869,-101.562,-39.551,-10.254,-93.262,0.000,0
1641445107.873,-68.848,-39.551,-13.672,-76.660,0.000,0
1641445107.877,-49.316,-34.668,-8.789,-52.246,0.000,0
1641445107.880,-65.918,-31.250,-4.883,-58.105,0.000,0
1641445107.884,-83.496,-30.273,-8.301,-70.312,0.000,0
1641445107.888,-68.848,-31.250,-10.254,-64.941,0.000,0
1641445107.892,-42.969,-25.391,-16.602,-55.664,0.000,0
1641445107.896,-67.871,-26.855,-18.555,-70.312,0.000,0
1641445107.899,-80.566,-35.645,-17.578,-79.590,0.000,0
1641445107.903,-61.523,-38.086,-27.832,-68.848,0.000,0
1641445107.907,-50.781,-35.156,-25.391,-59.082,0.000,0
1641445107.911,-64.453,-31.738,-14.160,-66.895,0.000,0
1641445107.915,-85.938,-33.203,-10.742,-72.266,0.000,0
1641445107.918,-83.496,-36.621,-13.184,-74.219,0.000,0
1641445107.922,-60.059,-27.832,-11.719,-65.430,0.000,0
1641445107.926,-59.570,-25.879,-5.371,-62.500,0.000,0
1641445107.929,-84.473,-36.133,-11.719,-67.871,0.000,0
1641445107.933,-84.473,-34.668,-16.113,-73.730,0.000,0
1641445107.937,-61.523,-25.391,-13.672,-63.477,0.000,0
1641445107.941,-47.363,-22.461,-11.230,-53.711,0.000,0
1641445107.945,-74.219,-37.109,-14.648,-61.523,0.000,0
1641445107.948,-89.355,-38.086,-13.672,-68.848,0.000,0
1641445107.952,-67.383,-29.297,-5.371,-71.289,0.000,0
1641445107.956,-42.480,-30.273,-8.789,-49.316,0.000,0
1641445107.960,-48.340,-32.715,-9.766,-50.781,0.000,0
1641445107.964,-62.988,-32.227,2.441,-65.430,0.000,0
1641445107.967,-59.570,-28.320,0.488,-54.688,0.000,0
1641445107.972,-43.457,-31.250,-12.695,-36.133,0.000,0
1641445107.975,-48.340,-34.180,-10.254,-50.293,0.000,0
1641445107.979,-77.148,-30.273,-9.277,-76.172,0.000,0
1641445107.983,-81.543,-21.973,-8.301,-78.125,0.000,0
1641445107.987,-45.898,-26.367,-9.277,-50.293,0.000,0
1641445107.991,-42.969,-31.250,-7.324,-39.062,0.000,0
1641445107.994,-71.289,-30.273,-3.418,-62.012,0.000,0
1641445107.998,-80.078,-33.203,-1.953,-70.312,0.000,0
1641445108.002,-65.430,-31.250,-0.977,-48.828,0.000,0
1641445108.006,-46.387,-38.086,-4.395,-38.574,0.000,0
1641445108.010,-73.730,-37.598,-9.277,-65.430,0.000,0
1641445108.014,-83.984,-32.227,-12.695,-70.312,0.000,0
1641445108.018,-62.012,-39.062,-13.672,-50.293,0.000,0
1641445108.021,-40.527,-34.668,-5.371,-34.668,0.000,0
1641445108.025,-59.570,-20.020,-2.441,-50.781,0.000,0
1641445108.029,-74.707,-20.020,-7.324,-63.965,0.000,0
1641445108.033,-66.895,-29.297,-10.254,-53.711,0.000,0
1641445108.037,-44.922,-33.691,-10.742,-46.875,0.000,0
1641445108.040,-45.410,-31.738,-10.742,-62.500,0.000,0
1641445108.044,-72.754,-29.785,-8.789,-74.219,0.000,0
1641445108.048,-71.289,-38.086,-18.066,-63.477,0.000,0
1641445108.052,-45.410,-39.551,-16.113,-51.758,0.000,0
1641445108.056,-38.086,-27.832,-0.977,-55.664,0.000,0
1641445108.059,-66.406,-27.832,-7.324,-70.312,0.000,0
1641445108.063,-81.543,-26.855,-14.648,-71.777,0.000,0
1641445108.067,-73.730,-20.996,-9.766,-66.406,0.000,0
1641445108.071,-48.340,-18.066,-0.488,-52.246,0.000,0
1641445108.075,-63.477,-21.484,-1.465,-66.406,0.000,0
1641445108.079,-81.543,-23.926,-4.883,-77.148,0.000,0
1641445108.083,-71.777,-24.902,-4.883,-56.152,0.000,0
1641445108.086,-41.504,-20.508,-2.930,-36.133,0.000,0
1641445108.090,-53.223,-28.320,-3.906,-52.734,0.000,0
1641445108.094,-91.797,-44.434,-14.160,-75.195,0.000,1
1641445108.098,-83.496,-37.109,-9.766,-71.289,0.000,0
1641445108.102,-58.594,-29.785,-0.488,-54.688,0.000,0
1641445108.105,-58.594,-35.156,-3.906,-51.270,0.000,0
1641445108.109,-88.379,-41.504,-7.324,-79.102,0.000,0
1641445108.113,-96.680,-41.016,-0.977,-71.777,0.000,0
1641445108.117,-72.266,-39.062,-4.883,-50.781,0.000,0
1641445108.121,-58.105,-41.504,-19.531,-61.035,0.000,0
1641445108.125,-67.383,-41.504,-17.578,-79.590,0.000,0
1641445108.128,-79.102,-32.227,-13.184,-81.055,0.000,0
1641445108.132,-67.871,-31.738,-16.113,-71.289,0.000,0
1641445108.136,-45.410,-45.410,-22.949,-46.875,0.000,0
1641445108.140,-75.195,-44.434,-20.508,-63.965,0.000,0
1641445108.144,-96.680,-24.414,-8.301,-80.566,0.000,0
1641445108.148,-77.148,-28.320,-16.602,-61.035,0.000,0
1641445108.151,-48.340,-34.180,-20.508,-53.223,0.000,0
1641445108.155,-52.734,-26.367,-12.695,-65.430,0.000,0
1641445108.159,-80.566,-21.484,-11.230,-83.496,0.000,0
1641445108.163,-77.148,-24.414,-9.766,-83.008,0.000,0
1641445108.167,-57.129,-25.879,-9.277,-60.059,0.000,0
1641445108.170,-53.711,-24.414,-4.883,-58.594,0.000,0
1641445108.174,-68.848,-21.484,-1.953,-74.219,0.000,0
1641445108.178,-78.125,-21.973,-9.766,-69.824,0.000,0
1641445108.182,-56.152,-30.762,-11.719,-42.969,0.000,0
1641445108.186,-46.387,-26.855,0.488,-42.969,0.000,0
1641445108.190,-74.707,-23.438,5.859,-71.289,0.000,0
1641445108.193,-83.984,-29.297,-1.953,-73.730,0.000,0
1641445108.197,-63.965,-27.832,-7.324,-57.617,0.000,0
1641445108.201,-48.340,-21.484,-6.348,-54.199,0.000,0
1641445108.205,-69.824,-23.926,-7.812,-72.754,0.000,0
1641445108.209,-80.078,-29.785,-14.160,-82.031,0.000,0
1641445108.212,-74.219,-29.297,-17.578,-76.660,0.000,0
1641445108.216,-56.641,-30.273,-22.461,-58.105,0.000,0
1641445108.220,-57.129,-25.391,-21.973,-71.777,0.000,0
1641445108.224,-79.590,-27.832,-21.484,-84.961,0.000,0
1641445108.228,-88.867,-29.297,-15.137,-67.383,0.000,0
1641445108.232,-64.941,-18.555,-2.441,-60.059,0.000,0
1641445108.235,-57.617,-26.855,-8.789,-66.895,0.000,0
1641445108.239,-88.867,-33.691,-15.625,-83.008,0.000,0
1641445108.243,-95.703,-30.762,-13.672,-80.566,0.000,0
1641445108.247,-72.266,-28.809,-9.766,-74.707,0.000,0
1641445108.251,-50.293,-30.273,-10.742,-65.430,0.000,0
1641445108.254,-72.266,-29.297,-18.066,-77.637,0.000,0
1641445108.258,-94.238,-21.484,-11.719,-90.820,0.000,0
1641445108.262,-83.008,-16.602,2.441,-76.172,0.000,0
1641445108.266,-56.152,-18.555,0.000,-48.340,0.000,0
1641445108.270,-62.988,-27.344,-11.719,-57.129,0.000,0
1641445108.273,-87.891,-31.250,-17.578,-82.031,0.000,0
1641445108.277,-80.566,-26.367,-5.859,-74.707,0.000,0
1641445108.281,-50.293,-24.902,0.488,-47.852,0.000,0
1641445108.285,-55.176,-20.996,-2.930,-42.969,0.000,0
1641445108.289,-81.543,-19.531,2.441,-66.406,0.000,0
1641445108.292,-79.590,-25.879,3.418,-73.730,0.000,0
1641445108.296,-53.711,-26.367,2.930,-54.688,0.000,0
1641445108.300,-46.387,-25.391,1.953,-36.133,0.000,0
1641445108.304,-72.754,-20.996,-0.488,-63.965,0.000,0
1641445108.308,-81.055,-20.996,-2.441,-89.355,0.000,0
1641445108.312,-56.641,-35.645,-15.625,-67.871,0.000,0
1641445108.315,-39.551,-35.645,-13.184,-46.875,0.000,0
1641445108.319,-72.266,-29.785,-0.977,-66.895,0.000,0
1641445108.323,-86.426,-35.645,-6.836,-83.496,0.000,0
1641445108.327,-63.477,-31.738,-2.930,-70.312,0.000,0
1641445108.331,-41.992,-26.367,7.324,-43.945,0.000,0
1641445108.334,-62.500,-26.855,8.789,-54.199,0.000,0
1641445108.339,-83.496,-29.785,9.277,-79.102,0.000,0
1641445108.343,-69.824,-31.738,5.371,-75.684,0.000,0
1641445108.346,-52.734,-28.320,2.930,-67.871,0.000,0
1641445108.350,-56.152,-21.484,0.000,-64.941,0.000,0
1641445108.354,-74.707,-33.203,-5.371,-71.777,0.000,0
1641445108.358,-73.730,-43.457,-10.742,-68.359,0.000,0
1641445108.362,-54.199,-37.109,-12.695,-49.316,0.000,0
1641445108.365,-45.898,-27.832,-10.254,-41.504,0.000,0
1641445108.369,-69.824,-26.367,-7.812,-62.500,0.000,0
1641445108.373,-74.219,-29.785,-8.301,-68.848,0.000,0
1641445108.377,-54.688,-18.066,-2.441,-55.664,0.000,0
1641445108.381,-42.480,-19.531,-3.906,-48.828,0.000,0
1641445108.385,-59.570,-22.461,-11.719,-63.477,0.000,0
1641445108.389,-78.613,-18.555,-1.465,-67.383,0.000,0
1641445108.393,-69.336,-20.996,6.836,-62.988,0.000,0
1641445108.397,-46.875,-21.973,-1.465,-48.340,0.000,0
1641445108.400,-51.270,-25.879,-9.766,-51.758,0.000,0
1641445108.404,-78.613,-31.738,-11.719,-67.383,0.000,0
1641445108.408,-76.660,-27.344,-8.301,-58.105,0.000,0
1641445108.412,-44.434,-15.625,-7.812,-50.293,0.000,0
1641445108.416,-44.434,-26.855,-16.113,-34.180,0.000,0
1641445108.419,-73.242,-29.297,-14.160,-41.504,0.000,0
1641445108.423,-67.871,-10.742,0.488,-62.988,0.000,0
1641445108.427,-37.598,-9.766,6.836,-39.551,0.000,0
1641445108.431,-30.762,-14.160,1.953,-31.738,0.000,0
1641445108.435,-60.059,-20.508,-6.836,-62.988,0.000,0
1641445108.439,-75.684,-20.020,-3.906,-55.664,0.000,0
1641445108.443,-44.434,-12.207,0.000,-43.457,0.000,0
1641445108.447,-18.555,-14.648,-5.859,-40.039,0.000,0
1641445108.450,-60.059,-23.926,-4.395,-43.457,0.000,0
1641445108.454,-94.727,-22.461,-0.488,-53.711,0.000,0
1641445108.458,-78.125,-19.531,2.441,-50.293,0.000,0
1641445108.462,-40.527,-27.344,1.953,-38.086,0.000,0
1641445108.466,-47.852,-20.020,6.836,-33.691,0.000,0
1641445108.469,-77.148,-11.230,4.883,-52.246,0.000,0
1641445108.473,-72.266,-20.996,-8.301,-65.918,0.000,0
1641445108.477,-49.316,-23.438,-5.371,-53.711,0.000,0
1641445108.481,-49.316,-20.508,-1.953,-54.688,0.000,0
1641445108.485,-75.195,-20.508,-2.441,-76.660,0.000,0
1641445108.489,-75.195,-23.438,0.000,-74.219,0.000,0
1641445108.493,-55.176,-28.809,3.906,-47.363,0.000,0
1641445108.497,-52.734,-29.785,4.883,-42.969,0.000,0
1641445108.500,-79.102,-32.715,0.000,-73.242,0.000,0
1641445108.504,-81.055,-38.574,-8.789,-68.848,0.000,0
1641445108.508,-60.547,-31.738,-4.395,-51.758,0.000,0
1641445108.512,-46.875,-14.160,1.953,-51.758,0.000,0
1641445108.516,-59.570,-13.672,-6.836,-57.617,0.000,0
1641445108.519,-82.031,-17.578,-8.789,-69.824,0.000,0
1641445108.524,-84.961,-20.508,-13.184,-67.871,0.000,0
1641445108.527,-55.664,-25.391,-14.648,-57.129,0.000,0
1641445108.531,-60.059,-36.621,-18.555,-63.965,0.000,0
1641445108.535,-94.727,-41.504,-21.973,-77.148,0.000,0
1641445108.539,-85.938,-36.621,-11.230,-81.543,0.000,0
1641445108.543,-57.617,-34.180,-4.395,-67.871,0.000,0
1641445108.547,-57.129,-31.738,-4.395,-45.410,0.000,0
1641445108.550,-78.125,-33.691,-8.789,-49.316,0.000,0
1641445108.554,-87.891,-27.832,-11.230,-69.824,0.000,0
1641445108.558,-77.637,-27.832,-5.859,-77.637,0.000,0
1641445108.562,-53.223,-32.715,-6.348,-65.430,0.000,0
1641445108.566,-69.824,-31.738,-11.230,-74.707,0.000,0
1641445108.570,-86.914,-29.785,-7.812,-76.172,0.000,0
1641445108.574,-69.824,-30.273,-2.441,-64.941,0.000,0
1641445108.577,-45.410,-35.156,-0.977,-44.922,0.000,0
1641445108.581,-52.246,-34.668,-2.930,-50.293,0.000,0
1641445108.585,-73.730,-28.809,-5.859,-65.918,0.000,0
1641445108.589,-68.848,-31.738,-9.766,-67.383,0.000,0
1641445108.593,-42.480,-34.668,-15.625,-50.781,0.000,0
1641445108.596,-47.852,-28.320,-17.090,-48.828,0.000,0
1641445108.600,-81.055,-19.043,-9.277,-79.590,0.000,0
1641445108.604,-84.473,-26.855,-6.348,-82.031,0.000,0
1641445108.608,-53.711,-33.203,-12.207,-53.711,0.000,0
1641445108.612,-32.715,-28.809,-12.695,-52.246,0.000,0
1641445108.616,-64.453,-22.949,-11.719,-82.520,0.000,0
1641445108.620,-83.496,-16.113,-10.742,-80.566,0.000,0
1641445108.623,-59.570,-14.648,-9.766,-68.359,0.000,0
1641445108.627,-43.457,-22.949,-8.789,-63.477,0.000,0
1641445108.631,-64.453,-27.344,-7.812,-76.172,0.000,0
1641445108.635,-89.355,-32.715,-8.789,-83.496,0.000,0
1641445108.639,-76.172,-44.922,-10.742,-71.289,0.000,0
1641445108.642,-52.734,-31.738,-9.277,-54.199,0.000,0
1641445108.646,-59.570,-18.555,-4.883,-69.336,0.000,0
1641445108.650,-77.637,-23.438,-5.859,-77.637,0.000,0
1641445108.654,-79.102,-21.484,-8.789,-69.824,0.000,0
1641445108.658,-57.617,-18.066,-6.348,-65.918,0.000,0
1641445108.662,-63.965,-21.973,-6.836,-66.895,0.000,0
1641445108.665,-77.637,-27.344,-7.812,-75.684,0.000,0
1641445108.669,-71.289,-26.855,1.953,-68.359,0.000,0
1641445108.673,-65.918,-19.531,7.324,-65.918,0.000,0
1641445108.677,-43.945,-20.996,3.418,-48.340,0.000,0
1641445108.681,-45.898,-29.785,-5.859,-45.410,0.000,0
1641445108.685,-66.895,-26.855,-6.836,-60.059,0.000,0
1641445108.688,-66.895,-19.043,-5.859,-56.152,0.000,0
1641445108.692,-51.270,-20.996,-7.812,-42.969,0.000,0
1641445108.696,-67.383,-27.832,-16.602,-55.664,0.000,0
1641445108.700,-92.773,-24.414,-15.625,-73.242,0.000,0
1641445108.704,-73.242,-19.531,-9.277,-77.637,0.000,0
1641445108.708,-34.180,-17.090,-12.695,-55.664,0.000,0
1641445108.712,-28.320,-16.113,-7.812,-45.410,0.000,0
1641445108.716,-63.477,-18.555,-6.348,-71.289,0.000,0
1641445108.720,-84.473,-18.066,-2.930,-77.637,0.000,0
1641445108.723,-51.758,-17.090,-3.418,-58.594,0.000,0
1641445108.727,-37.109,-16.602,-12.207,-50.293,0.000,0
1641445108.731,-60.059,-13.672,-13.184,-65.918,0.000,0
1641445108.735,-74.707,-9.766,-11.719,-77.148,0.000,0
1641445108.739,-63.965,-14.648,-12.695,-66.406,0.000,0
1641445108.743,-48.828,-22.949,-17.090,-45.410,0.000,0
1641445108.746,-68.848,-17.578,-11.230,-65.430,0.000,0
1641445108.750,-103.027,-21.973,-9.277,-84.961,0.000,0
1641445108.755,-86.426,-27.344,-14.648,-62.012,0.000,0
1641445108.758,-45.898,-22.461,-9.766,-47.363,0.000,0
1641445108.762,-69.336,-23.926,-10.254,-64.453,0.000,0
1641445108.766,-98.145,-21.973,-8.789,-66.895,0.000,0
1641445108.770,-81.543,-22.461,-9.277,-63.477,0.000,0
1641445108.774,-52.246,-31.250,-15.137,-47.852,0.000,0
1641445108.778,-64.453,-29.785,-8.789,-48.340,0.000,0
1641445108.781,-100.098,-25.879,-8.789,-74.219,0.000,0
1641445108.785,-93.262,-40.527,-22.461,-69.336,0.000,0
1641445108.789,-63.477,-40.039,-22.461,-51.758,0.000,0
1641445108.793,-65.430,-19.531,-9.277,-52.246,0.000,0
1641445108.797,-85.938,-13.672,-7.324,-65.918,0.000,0
1641445108.801,-78.125,-16.602,-12.207,-67.383,0.000,0
1641445108.805,-51.270,-20.020,-11.230,-51.758,0.000,0
1641445108.809,-40.527,-22.949,-9.766,-43.945,0.000,0
1641445108.813,-56.641,-22.461,-9.277,-54.688,0.000,0
1641445108.816,-79.590,-26.367,-12.695,-54.688,0.000,0
1641445108.820,-81.543,-30.762,-13.672,-53.711,0.000,0
1641445108.824,-51.270,-29.297,-13.672,-46.875,0.000,0
1641445108.828,-64.941,-28.809,-20.020,-56.641,0.000,0
1641445108.832,-88.867,-32.715,-13.184,-61.035,0.000,0
1641445108.835,-77.637,-27.832,-1.953,-47.363,0.000,0
1641445108.839,-51.758,-22.461,-2.441,-42.969,0.000,0
1641445108.843,-57.129,-32.227,-5.859,-46.387,0.000,0
1641445108.847,-83.984,-32.715,0.000,-64.453,0.000,0
1641445108.851,-84.473,-27.344,2.930,-62.012,0.000,0
1641445108.855,-57.617,-26.855,0.000,-45.898,0.000,0
1641445108.859,-38.574,-25.391,-7.324,-42.969,0.000,0
1641445108.863,-58.594,-23.926,-6.348,-52.734,0.000,0
1641445108.867,-68.359,-25.879,-5.371,-66.406,0.000,0
1641445108.870,-63.477,-30.273,-7.812,-69.824,0.000,0
1641445108.874,-53.711,-41.504,-11.230,-43.457,0.000,0
1641445108.878,-64.941,-36.621,-10.254,-41.992,0.000,0
1641445108.882,-80.566,-19.531,-3.418,-72.754,0.000,0
1641445108.886,-74.707,-22.461,-8.789,-69.824,0.000,0
1641445108.889,-54.688,-23.438,-10.742,-51.270,0.000,0
1641445108.894,-62.012,-26.855,-8.789,-55.664,0.000,0
1641445108.898,-84.473,-27.832,-9.766,-64.941,0.000,0
1641445108.901,-77.148,-28.320,-11.230,-68.359,0.000,0
1641445108.905,-51.270,-32.227,-6.836,-54.199,0.000,0
1641445108.909,-59.570,-32.227,-8.301,-53.711,0.000,0
1641445108.913,-84.961,-39.551,-13.672,-77.637,0.000,0
1641445108.917,-79.102,-43.945,-20.020,-79.590,0.000,0
1641445108.921,-64.453,-46.387,-25.391,-62.500,0.000,0
1641445108.924,-58.594,-31.738,-15.137,-59.570,0.000,0
1641445108.928,-72.266,-19.531,-5.371,-69.336,0.000,0
1641445108.932,-82.031,-27.344,-4.395,-67.871,0.000,0
1641445108.936,-74.219,-23.926,-0.488,-53.711,0.000,0
1641445108.940,-58.105,-14.648,-2.441,-43.457,0.000,0
1641445108.944,-75.684,-22.949,-10.254,-59.082,0.000,0
1641445108.948,-88.379,-33.203,-11.719,-53.223,0.000,0
1641445108.952,-90.820,-35.156,-8.789,-53.223,0.000,0
1641445108.955,-76.660,-34.180,-5.859,-52.246,0.000,0
1641445108.959,-68.359,-32.715,-10.742,-52.734,0.000,0
1641445108.963,-85.938,-36.133,-14.160,-67.871,0.000,0
1641445108.967,-85.449,-34.180,-14.160,-67.871,0.000,1
1641445108.971,-54.688,-12.695,-4.395,-60.547,0.000,0
1641445108.974,-47.852,-10.742,-4.883,-52.734,0.000,0
1641445108.978,-81.055,-26.367,-13.672,-67.871,0.000,0
1641445108.982,-93.262,-33.691,-10.254,-78.613,0.000,0
1641445108.986,-71.289,-33.691,-8.789,-79.590,0.000,0
1641445108.990,-42.969,-30.273,-9.277,-75.684,0.000,0
1641445108.994,-66.406,-28.809,-12.695,-90.820,0.000,0
1641445108.998,-98.633,-25.879,-12.207,-96.191,0.000,0
1641445109.002,-85.938,-25.879,-9.277,-85.938,0.000,0
1641445109.005,-59.570,-28.809,-17.090,-76.660,0.000,0
1641445109.009,-72.266,-30.762,-20.996,-73.730,0.000,0
1641445109.013,-99.609,-32.715,-16.602,-84.961,0.000,0
1641445109.017,-100.586,-32.715,-20.996,-104.492,0.000,0
1641445109.021,-77.637,-36.621,-29.297,-82.520,0.000,0
1641445109.024,-71.777,-38.086,-26.855,-72.266,0.000,0
1641445109.028,-96.680,-34.668,-19.531,-89.355,0.000,0
1641445109.033,-94.727,-32.715,-15.137,-89.844,0.000,0
1641445109.037,-64.453,-37.109,-16.113,-77.637,0.000,0
1641445109.041,-65.918,-33.203,-12.695,-71.777,0.000,0
1641445109.044,-91.797,-22.461,-9.277,-88.867,0.000,0
1641445109.048,-95.215,-25.879,-13.184,-91.797,0.000,0
1641445109.052,-74.219,-41.992,-20.020,-56.641,0.000,0
1641445109.056,-55.664,-38.574,-13.672,-47.363,0.000,0
1641445109.060,-79.590,-20.020,-2.930,-75.684,0.000,0
1641445109.064,-99.121,-21.973,-6.836,-80.078,0.000,0
1641445109.067,-80.078,-31.738,-9.766,-71.289,0.000,0
1641445109.071,-55.664,-31.250,-5.859,-52.246,0.000,0
1641445109.075,-70.312,-26.855,-6.348,-58.594,0.000,0
1641445109.080,-84.961,-27.832,-3.418,-73.730,0.000,0
1641445109.083,-73.730,-25.391,5.371,-74.707,0.000,0
1641445109.087,-58.105,-25.391,-0.977,-65.918,0.000,0
1641445109.091,-61.523,-22.461,-0.488,-64.941,0.000,0
1641445109.095,-76.660,-21.973,-0.488,-69.824,0.000,0
1641445109.099,-80.566,-30.273,-6.836,-75.684,0.000,0
1641445109.103,-67.383,-34.180,-5.371,-70.312,0.000,0
1641445109.106,-59.082,-29.297,-0.977,-50.293,0.000,0
1641445109.110,-80.078,-27.832,0.977,-55.176,0.000,0
1641445109.114,-86.914,-32.227,3.418,-57.129,0.000,0
1641445109.118,-78.613,-25.391,4.395,-54.688,0.000,0
1641445109.122,-60.547,-22.949,-0.488,-52.246,0.000,0
1641445109.126,-76.172,-33.203,-9.277,-64.453,0.000,0
1641445109.130,-97.656,-36.621,-10.254,-79.102,0.000,0
1641445109.134,-84.961,-30.273,-7.324,-67.383,0.000,0
1641445109.138,-56.641,-25.391,-7.324,-51.270,0.000,0
1641445109.141,-60.547,-28.809,-8.301,-61.523,0.000,0
1641445109.145,-79.102,-36.621,-3.906,-63.477,0.000,0
1641445109.149,-71.289,-28.320,3.418,-62.988,0.000,0
1641445109.153,-48.828,-18.555,1.953,-46.387,0.000,0
1641445109.157,-52.246,-34.180,-14.160,-48.340,0.000,0
1641445109.161,-83.008,-41.504,-16.602,-75.195,0.000,0
1641445109.164,-79.590,-20.020,-5.371,-77.637,0.000,0
1641445109.168,-43.945,-10.254,-2.930,-55.664,0.000,0
1641445109.173,-35.645,-21.484,-3.906,-38.574,0.000,0
1641445109.177,-70.801,-26.855,-6.836,-60.547,0.000,0
1641445109.180,-81.055,-20.020,-6.836,-59.082,0.000,0
1641445109.184,-60.547,-23.438,-13.672,-48.828,0.000,0
1641445109.188,-41.504,-26.367,-11.719,-43.457,0.000,0
1641445109.192,-63.965,-31.250,-4.395,-53.711,0.000,0
1641445109.196,-86.914,-30.762,-3.906,-69.336,0.000,0
1641445109.199,-69.336,-30.762,-6.836,-65.430,0.000,0
1641445109.203,-44.434,-36.133,-7.324,-41.504,0.000,0
1641445109.207,-57.617,-36.133,-7.324,-48.828,0.000,0
1641445109.211,-82.520,-36.133,-9.766,-66.406,0.000,0
1641445109.215,-81.543,-38.086,-9.766,-59.082,0.000,0
1641445109.219,-48.340,-37.598,-9.277,-43.457,0.000,0
1641445109.223,-50.293,-34.668,-10.742,-44.922,0.000,0
1641445109.227,-84.961,-34.668,-14.648,-72.266,0.000,0
1641445109.231,-85.449,-38.086,-17.578,-82.031,0.000,0
1641445109.235,-65.430,-40.527,-12.207,-64.453,0.000,0
1641445109.238,-54.688,-45.410,-7.812,-52.734,0.000,0
1641445109.242,-79.590,-43.945,-13.184,-76.172,0.000,0
1641445109.246,-90.332,-44.922,-15.137,-69.824,0.000,0
1641445109.250,-71.289,-46.387,-13.672,-45.410,0.000,0
1641445109.254,-42.480,-29.297,-5.859,-37.598,0.000,0
1641445109.257,-49.316,-23.438,-2.441,-53.223,0.000,0
1641445109.261,-73.730,-22.461,-2.930,-63.477,0.000,0
1641445109.266,-70.312,-20.996,0.488,-51.758,0.000,0
1641445109.269,-45.898,-24.902,3.418,-51.270,0.000,0
1641445109.273,-48.340,-27.832,2.930,-56.641,0.000,0
1641445109.277,-74.219,-25.879,0.977,-62.012,0.000,0
1641445109.281,-68.848,-24.414,-6.836,-62.988,0.000,0
1641445109.285,-43.945,-27.832,-12.207,-49.805,0.000,0
1641445109.289,-37.598,-20.020,-12.695,-39.062,0.000,0
1641445109.292,-62.988,-20.020,-11.230,-41.504,0.000,0
1641445109.296,-77.637,-20.020,1.953,-44.434,0.000,0
1641445109.300,-50.293,-16.113,8.301,-49.316,0.000,0
1641445109.304,-29.785,-21.973,-2.441,-44.434,0.000,0
1641445109.308,-64.941,-29.297,-11.230,-56.152,0.000,0
1641445109.312,-93.750,-27.344,-4.883,-67.383,0.000,0
1641445109.316,-76.172,-21.973,-6.836,-59.570,0.000,0
1641445109.320,-46.875,-20.020,-16.113,-42.480,0.000,0
1641445109.324,-65.430,-16.113,-11.719,-52.246,0.000,0
1641445109.327,-83.496,-20.508,-10.254,-73.242,0.000,0
1641445109.331,-69.336,-27.832,-17.578,-83.984,0.000,0
1641445109.335,-46.875,-34.668,-17.090,-50.781,0.000,0
1641445109.339,-55.176,-36.133,-14.648,-43.457,0.000,0
1641445109.343,-93.262,-27.344,-7.812,-84.473,0.000,0
1641445109.346,-83.984,-23.438,-4.883,-77.148,0.000,0
1641445109.350,-56.641,-19.531,-8.301,-53.223,0.000,0
1641445109.354,-61.035,-28.320,-11.230,-60.059,0.000,0
1641445109.359,-86.426,-32.715,-15.137,-78.125,0.000,0
1641445109.363,-97.656,-34.180,-20.508,-85.938,0.000,0
1641445109.367,-75.195,-38.086,-20.020,-83.984,0.000,0
1641445109.370,-50.781,-30.273,-8.301,-49.805,0.000,0
1641445109.374,-81.055,-28.320,-3.418,-61.523,0.000,0
1641445109.378,-97.168,-29.785,-2.930,-93.750,0.000,0
1641445109.382,-67.871,-32.715,-6.836,-68.359,0.000,0
1641445109.386,-46.387,-24.902,-5.859,-53.223,0.000,0
1641445109.390,-68.848,-15.137,1.465,-67.383,0.000,0
1641445109.393,-91.797,-27.832,-2.441,-79.102,0.000,0
1641445109.397,-70.312,-33.203,3.418,-74.707,0.000,0
1641445109.401,-46.875,-26.367,8.301,-51.758,0.000,0
1641445109.405,-61.035,-25.879,4.883,-50.293,0.000,0
1641445109.409,-78.125,-27.832,3.418,-53.711,0.000,0
1641445109.413,-68.848,-23.438,0.000,-46.875,0.000,0
1641445109.417,-54.199,-15.625,0.488,-39.062,0.000,0
1641445109.420,-45.410,-24.902,-0.488,-34.180,0.000,0
1641445109.424,-65.430,-39.062,-11.719,-59.570,0.000,0
1641445109.428,-88.867,-40.527,-14.648,-74.219,0.000,0
1641445109.432,-66.406,-34.180,-7.324,-66.406,0.000,0
1641445109.436,-41.016,-20.996,-1.465,-51.270,0.000,0
1641445109.440,-60.059,-26.855,-15.625,-57.617,0.000,0
1641445109.443,-79.590,-25.879,-15.137,-66.406,0.000,0
1641445109.447,-74.219,-9.277,-2.441,-59.082,0.000,0
1641445109.452,-44.922,-16.602,-7.324,-47.852,0.000,0
1641445109.456,-55.664,-22.949,-3.906,-56.641,0.000,0
1641445109.460,-91.797,-25.879,-4.395,-75.195,0.000,0
1641445109.463,-78.613,-24.902,-3.906,-73.242,0.000,0
1641445109.467,-48.828,-19.043,-0.488,-46.387,0.000,0
1641445109.471,-43.457,-22.949,-6.348,-40.527,0.000,0
1641445109.475,-65.430,-19.531,-4.883,-63.477,0.000,0
1641445109.479,-76.172,-15.625,0.000,-68.359,0.000,0
1641445109.482,-54.688,-20.996,-2.441,-53.223,0.000,0
1641445109.486,-46.875,-25.391,-4.883,-38.574,0.000,0
1641445109.490,-84.473,-27.344,-6.348,-63.477,0.000,0
1641445109.494,-97.656,-30.762,-5.371,-84.473,0.000,0
1641445109.499,-68.359,-42.480,-12.207,-70.801,0.000,0
1641445109.502,-40.527,-41.504,-20.996,-47.363,0.000,0
1641445109.506,-63.477,-25.391,-10.254,-60.547,0.000,0
1641445109.510,-79.590,-22.461,-0.977,-90.332,0.000,0
1641445109.514,-62.500,-25.879,-6.836,-81.055,0.000,0
1641445109.518,-51.270,-24.414,-16.113,-50.293,0.000,0
1641445109.522,-56.152,-20.996,-10.254,-53.711,0.000,0
1641445109.525,-80.566,-19.531,-2.441,-81.055,0.000,0
1641445109.529,-79.590,-31.738,-13.184,-68.848,0.000,0
1641445109.533,-57.129,-38.574,-14.160,-50.781,0.000,0
1641445109.537,-59.570,-22.461,0.977,-58.105,0.000,0
1641445109.541,-76.172,-23.438,-5.371,-64.941,0.000,0
1641445109.545,-76.172,-29.785,-9.277,-62.500,0.000,0
1641445109.549,-65.430,-26.855,-3.418,-66.895,0.000,0
1641445109.553,-52.246,-23.926,2.930,-57.129,0.000,0
1641445109.557,-68.848,-28.320,0.000,-69.824,0.000,0
1641445109.560,-87.891,-28.320,-12.695,-86.914,0.000,0
1641445109.564,-76.172,-18.066,-13.184,-70.312,0.000,0
1641445109.568,-52.246,-21.484,-8.301,-56.641,0.000,0
1641445109.572,-66.406,-31.738,-7.812,-64.941,0.000,0
1641445109.576,-91.309,-40.039,-16.602,-80.566,0.000,0
1641445109.580,-85.449,-36.133,-11.719,-73.730,0.000,0
1641445109.583,-71.289,-31.250,-6.836,-57.129,0.000,0
1641445109.587,-72.266,-39.062,-15.625,-58.594,0.000,0
1641445109.592,-94.727,-39.062,-13.184,-72.754,0.000,0
1641445109.596,-87.891,-29.297,-3.418,-78.125,0.000,0
1641445109.599,-54.199,-24.902,1.953,-60.547,0.000,0
1641445109.603,-56.152,-32.715,-4.883,-50.781,0.000,0
1641445109.607,-85.938,-36.133,-16.113,-74.707,0.000,0
1641445109.611,-88.867,-35.645,-16.113,-88.867,0.000,0
1641445109.615,-63.965,-29.297,-4.395,-69.336,0.000,0
1641445109.619,-50.293,-28.809,-10.742,-47.363,0.000,0
1641445109.622,-75.195,-27.344,-19.043,-58.105,0.000,0
1641445109.626,-80.566,-14.648,-6.836,-77.637,0.000,0
1641445109.630,-66.406,-12.695,-1.465,-60.547,0.000,0
1641445109.634,-50.781,-18.066,1.465,-40.527,0.000,0
1641445109.638,-60.059,-17.090,1.465,-55.176,0.000,0
1641445109.642,-81.543,-15.137,-0.488,-73.242,0.000,0
1641445109.646,-74.707,-24.902,-5.859,-79.102,0.000,0
1641445109.650,-42.480,-24.902,-12.695,-57.617,0.000,0
1641445109.654,-53.711,-24.902,-9.766,-57.617,0.000,0
1641445109.657,-87.402,-29.297,-11.230,-71.777,0.000,0
1641445109.661,-77.148,-25.879,-10.742,-64.453,0.000,0
1641445109.665,-54.199,-34.180,-11.719,-49.316,0.000,0
1641445109.669,-49.316,-30.273,-3.418,-31.250,0.000,0
1641445109.673,-77.148,-13.672,6.836,-49.805,0.000,0
1641445109.677,-82.520,-20.020,1.465,-67.871,0.000,0
1641445109.680,-62.500,-23.926,3.906,-68.848,0.000,0
1641445109.685,-44.434,-13.672,5.859,-50.293,0.000,0
1641445109.689,-56.152,-12.695,3.906,-51.758,0.000,0
1641445109.692,-80.566,-30.273,-4.395,-64.941,0.000,0
1641445109.696,-68.848,-36.621,-6.348,-55.664,0.000,0
1641445109.700,-45.410,-30.762,3.418,-40.527,0.000,0
1641445109.704,-60.547,-32.227,-4.883,-52.246,0.000,0
1641445109.708,-86.914,-33.203,-13.184,-65.918,0.000,0
1641445109.712,-81.543,-30.273,-7.812,-61.035,0.000,0
1641445109.715,-58.105,-23.438,-4.883,-46.387,0.000,0
1641445109.719,-56.152,-26.855,-2.441,-45.410,0.000,1
1641445109.723,-89.844,-34.180,-1.953,-82.031,0.000,0
1641445109.727,-93.262,-34.668,-1.953,-83.984,0.000,0
1641445109.731,-66.895,-35.156,-4.395,-62.988,0.000,0
1641445109.735,-59.082,-35.156,-7.812,-62.500,0.000,0
1641445109.739,-77.148,-30.273,-9.277,-78.125,0.000,0
1641445109.743,-84.473,-20.020,-4.883,-69.824,0.000,0
1641445109.747,-66.406,-15.137,-1.953,-49.805,0.000,0
1641445109.750,-38.086,-21.484,-4.883,-36.133,0.000,0
1641445109.754,-57.617,-36.133,-8.301,-43.945,0.000,0
1641445109.758,-79.102,-29.785,-0.977,-63.477,0.000,0
1641445109.762,-65.918,-20.020,9.277,-65.918,0.000,0
1641445109.766,-40.039,-33.691,1.465,-45.898,0.000,0
1641445109.769,-49.316,-34.668,-0.977,-43.457,0.000,0
1641445109.773,-76.172,-30.762,1.953,-49.316,0.000,0
1641445109.778,-74.707,-29.297,0.000,-47.363,0.000,0
1641445109.781,-50.293,-26.367,-0.488,-40.527,0.000,0
1641445109.785,-43.945,-23.438,-2.441,-44.922,0.000,0
1641445109.789,-71.289,-20.996,-3.906,-73.242,0.000,0
1641445109.793,-70.801,-19.043,-3.418,-67.383,0.000,0
1641445109.797,-52.246,-32.715,-16.113,-44.922,0.000,0
1641445109.801,-33.691,-39.062,-14.160,-36.621,0.000,0
1641445109.804,-57.129,-27.344,0.000,-55.664,0.000,0
1641445109.808,-72.754,-25.879,-4.883,-50.781,0.000,0
1641445109.812,-43.457,-26.367,-5.371,-36.621,0.000,0
1641445109.816,-28.809,-21.973,-3.906,-38.574,0.000,0
1641445109.820,-53.711,-17.578,-2.930,-44.434,0.000,0
1641445109.824,-75.684,-19.043,-3.906,-50.293,0.000,0
1641445109.828,-67.383,-23.926,-6.348,-50.781,0.000,0
1641445109.832,-46.875,-29.297,-4.883,-35.156,0.000,0
1641445109.836,-52.246,-30.762,-15.137,-50.293,0.000,0
1641445109.840,-75.684,-25.879,-20.996,-75.195,0.000,0
1641445109.843,-74.707,-26.367,-15.137,-67.383,0.000,0
1641445109.847,-55.664,-24.414,-15.137,-51.270,0.000,0
1641445109.851,-50.293,-16.113,-13.672,-45.410,0.000,0
1641445109.855,-67.383,-18.555,-12.207,-60.059,0.000,0
1641445109.859,-68.359,-22.461,-15.137,-64.453,0.000,0
1641445109.863,-53.711,-16.602,-9.277,-58.594,0.000,0
1641445109.866,-45.898,-17.578,-8.789,-50.293,0.000,0
1641445109.871,-73.730,-28.809,-13.184,-60.059,0.000,0
1641445109.875,-85.449,-30.762,-13.184,-67.383,0.000,0
1641445109.879,-73.730,-21.484,-14.648,-63.477,0.000,0
1641445109.883,-64.453,-21.484,-15.137,-60.059,0.000,0
1641445109.886,-78.125,-29.297,-14.648,-55.664,0.000,0
1641445109.890,-101.074,-34.668,-16.602,-64.941,0.000,0
1641445109.894,-96.191,-34.668,-15.137,-84.961,0.000,0
1641445109.898,-69.336,-31.738,-12.207,-78.125,0.000,0
1641445109.902,-67.871,-38.086,-14.648,-59.570,0.000,0
1641445109.906,-85.449,-37.109,-15.137,-66.895,0.000,0
1641445109.909,-84.961,-22.461,-8.789,-70.312,0.000,0
1641445109.913,-72.754,-22.949,-5.859,-53.223,0.000,0
1641445109.918,-64.941,-27.344,-5.371,-50.293,0.000,0
1641445109.922,-74.707,-21.973,-4.883,-68.848,0.000,0
1641445109.925,-78.125,-18.066,-0.977,-76.172,0.000,0
1641445109.929,-62.988,-23.438,1.465,-65.918,0.000,0
1641445109.933,-43.945,-29.297,-0.488,-43.457,0.000,0
1641445109.937,-67.383,-33.203,-2.441,-48.340,0.000,0
1641445109.941,-84.961,-32.227,-4.395,-66.406,0.000,0
1641445109.945,-68.848,-40.039,-9.277,-65.918,0.000,0
1641445109.948,-48.828,-47.852,-21.484,-51.270,0.000,0
1641445109.952,-64.453,-35.156,-22.949,-61.035,0.000,0
1641445109.956,-89.844,-27.344,-14.648,-83.984,0.000,0
1641445109.960,-76.172,-28.809,-9.766,-77.148,0.000,0
1641445109.965,-47.852,-29.297,-9.766,-60.547,0.000,0
1641445109.969,-54.688,-22.461,-12.695,-64.941,0.000,0
1641445109.972,-84.961,-20.996,-10.254,-79.590,0.000,0
1641445109.976,-83.984,-30.762,-10.254,-68.359,0.000,0
1641445109.980,-61.035,-32.715,-13.184,-61.523,0.000,0
1641445109.984,-51.270,-31.250,-6.836,-47.852,0.000,0
1641445109.988,-76.172,-32.715,-5.859,-62.988,0.000,0
1641445109.992,-85.938,-34.180,-9.277,-80.566,0.000,0
1641445109.995,-59.082,-27.344,-7.812,-57.617,0.000,0
1641445109.999,-42.480,-10.742,-6.348,-48.828,0.000,0
1641445110.003,-58.594,-6.348,-7.324,-55.664,0.000,0
1641445110.007,-76.172,-18.555,-13.184,-56.641,0.000,0
1641445110.011,-69.824,-26.367,-17.090,-54.688,0.000,0
1641445110.015,-45.898,-24.902,-13.672,-58.594,0.000,0
1641445110.019,-50.781,-26.855,-12.695,-68.848,0.000,0
1641445110.023,-79.102,-24.414,-12.695,-73.242,0.000,0
1641445110.027,-81.055,-23.438,-6.836,-68.359,0.000,0
1641445110.031,-43.457,-24.414,-3.418,-48.340,0.000,0
1641445110.034,-40.039,-24.414,-15.137,-57.129,0.000,0
1641445110.038,-78.613,-24.902,-17.578,-82.520,0.000,0
1641445110.042,-78.125,-15.625,-9.277,-73.242,0.000,0
1641445110.046,-58.105,-15.625,-11.719,-65.918,0.000,0
1641445110.050,-55.176,-25.879,-17.578,-56.152,0.000,0
1641445110.054,-70.801,-33.691,-18.066,-64.941,0.000,0
1641445110.058,-77.148,-22.461,-6.348,-84.473,0.000,0
1641445110.062,-62.988,-13.672,-0.977,-72.754,0.000,0
1641445110.066,-36.133,-26.367,-3.906,-46.875,0.000,0
1641445110.069,-61.035,-35.645,-7.812,-61.035,0.000,0
1641445110.073,-87.402,-30.273,-8.301,-75.195,0.000,0
1641445110.077,-69.824,-24.902,-7.812,-67.383,0.000,0
1641445110.081,-50.781,-33.691,-11.230,-43.457,0.000,0
1641445110.085,-50.781,-30.762,-4.395,-35.156,0.000,0
1641445110.089,-76.660,-13.184,4.883,-55.176,0.000,0
1641445110.092,-87.891,-19.043,2.441,-63.477,0.000,0
1641445110.096,-63.965,-28.320,-1.953,-54.199,0.000,0
1641445110.100,-54.688,-29.785,0.488,-47.852,0.000,0
1641445110.104,-85.938,-30.273,2.441,-60.059,0.000,0
1641445110.108,-95.215,-22.949,-2.441,-64.941,0.000,0
1641445110.112,-69.336,-23.438,-3.906,-49.316,0.000,0
1641445110.116,-49.316,-29.297,-8.789,-46.875,0.000,0
1641445110.120,-75.684,-32.715,-11.230,-69.336,0.000,0
1641445110.124,-86.914,-33.691,-8.301,-73.730,0.000,0
1641445110.127,-70.312,-37.598,-13.184,-62.012,0.000,0
1641445110.131,-49.805,-34.668,-11.230,-50.781,0.000,0
1641445110.135,-58.594,-28.809,-1.465,-65.430,0.000,0
1641445110.139,-81.055,-38.574,-1.465,-75.195,0.000,0
1641445110.143,-73.242,-40.527,-6.836,-64.941,0.000,0
1641445110.147,-51.270,-27.344,0.000,-42.480,0.000,0
1641445110.151,-59.570,-19.531,0.488,-45.410,0.000,0
1641445110.155,-87.402,-29.785,-10.254,-65.430,0.000,0
1641445110.159,-81.055,-35.156,-9.277,-69.336,0.000,0
1641445110.162,-48.340,-30.273,0.977,-62.500,0.000,0
1641445110.166,-37.109,-25.391,8.301,-49.316,0.000,0
1641445110.170,-61.035,-34.668,-1.953,-51.758,0.000,0
1641445110.174,-76.660,-40.527,-6.348,-58.594,0.000,0
1641445110.178,-68.359,-25.879,-2.930,-59.570,0.000,0
1641445110.182,-48.340,-22.461,-10.742,-48.828,0.000,0
1641445110.185,-60.547,-28.320,-13.184,-58.594,0.000,0
1641445110.189,-87.402,-30.273,-13.184,-82.031,0.000,0
1641445110.193,-99.121,-34.668,-10.742,-82.520,0.000,0
1641445110.198,-74.707,-37.109,-15.625,-65.430,0.000,0
1641445110.202,-73.242,-37.109,-15.625,-74.707,0.000,0
1641445110.205,-89.355,-31.250,-0.977,-86.426,0.000,0
1641445110.209,-80.566,-30.762,-5.371,-83.496,0.000,0
1641445110.213,-58.594,-37.109,-20.020,-66.895,0.000,0
1641445110.217,-60.547,-41.016,-25.391,-59.082,0.000,0
1641445110.221,-84.961,-37.109,-21.973,-78.613,0.000,0
1641445110.225,-85.938,-31.738,-16.602,-85.938,0.000,0
1641445110.228,-62.500,-40.039,-13.672,-77.637,0.000,0
1641445110.232,-55.664,-50.781,-13.672,-63.965,0.000,0
1641445110.236,-84.473,-36.621,-14.648,-71.289,0.000,0
1641445110.240,-95.703,-29.785,-12.207,-94.238,0.000,0
1641445110.244,-74.219,-36.621,-12.207,-86.426,0.000,0
1641445110.248,-52.246,-26.855,-11.719,-63.965,0.000,0
1641445110.252,-69.824,-18.066,-7.324,-74.707,0.000,0
1641445110.256,-83.008,-23.438,-10.254,-85.449,0.000,0
1641445110.260,-71.777,-32.227,-13.672,-71.289,0.000,0
1641445110.264,-46.387,-33.691,-6.836,-50.293,0.000,0
1641445110.268,-54.688,-31.250,2.930,-55.664,0.000,0
1641445110.271,-83.496,-29.297,2.441,-77.637,0.000,0
1641445110.275,-77.637,-40.527,-11.230,-73.730,0.000,0
1641445110.279,-47.363,-36.133,-6.836,-57.129,0.000,0
1641445110.283,-46.875,-13.184,0.977,-60.059,0.000,0
1641445110.287,-66.895,-16.602,-8.789,-67.383,0.000,0
1641445110.291,-69.824,-26.367,-14.648,-73.730,0.000,0
1641445110.295,-51.758,-24.414,-8.301,-58.594,0.000,0
1641445110.299,-44.922,-20.020,-1.953,-39.551,0.000,0
1641445110.303,-67.383,-22.949,-5.859,-64.941,0.000,0
1641445110.307,-70.801,-29.785,-5.859,-72.754,0.000,0
1641445110.310,-52.246,-25.879,-7.324,-60.547,0.000,0
1641445110.314,-44.434,-26.367,-7.812,-42.969,0.000,0
1641445110.318,-62.500,-35.645,-14.648,-48.340,0.000,0
1641445110.322,-81.543,-37.109,-23.926,-66.406,0.000,0
1641445110.326,-74.707,-30.273,-17.578,-72.266,0.000,0
1641445110.330,-39.062,-21.484,-6.348,-55.664,0.000,0
1641445110.333,-46.387,-21.484,-10.742,-58.105,0.000,0
1641445110.338,-80.566,-20.020,-11.230,-73.730,0.000,0
1641445110.342,-82.520,-19.531,-4.395,-78.613,0.000,0
1641445110.346,-56.152,-21.973,-11.230,-74.707,0.000,0
1641445110.349,-50.293,-28.320,-16.602,-58.594,0.000,0
1641445110.353,-80.566,-33.691,-5.371,-66.895,0.000,0
1641445110.357,-85.938,-35.156,-3.418,-71.289,0.000,0
1641445110.361,-63.477,-29.297,-8.789,-58.594,0.000,0
1641445110.365,-49.805,-34.180,-15.625,-48.340,0.000,0
1641445110.369,-77.148,-37.598,-14.648,-62.500,0.000,0
1641445110.372,-90.820,-27.832,-6.348,-72.754,0.000,0
1641445110.376,-67.383,-27.832,-6.348,-64.453,0.000,0
1641445110.380,-43.457,-24.902,-8.789,-52.246,0.000,0
1641445110.385,-55.664,-21.973,-8.789,-53.223,0.000,0
1641445110.388,-74.707,-15.625,-5.859,-67.383,0.000,0
1641445110.392,-64.453,-16.602,-6.836,-75.195,0.000,0
1641445110.396,-47.852,-24.414,-12.695,-60.547,0.000,0
1641445110.400,-53.711,-25.391,-17.578,-53.711,0.000,0
1641445110.404,-79.590,-27.832,-19.531,-78.613,0.000,0
1641445110.408,-89.355,-36.621,-30.762,-92.285,0.000,0
1641445110.411,-49.805,-35.645,-34.668,-63.477,0.000,0
1641445110.415,-41.504,-21.973,-22.949,-56.152,0.000,0
1641445110.419,-76.172,-17.578,-15.137,-80.078,0.000,0
1641445110.423,-80.566,-28.320,-20.020,-79.590,0.000,0
1641445110.427,-62.500,-26.367,-18.555,-61.035,0.000,0
1641445110.431,-51.270,-15.625,-8.789,-40.039,0.000,0
1641445110.435,-75.684,-20.508,-13.672,-61.035,0.000,0
1641445110.439,-87.891,-28.320,-13.672,-77.148,0.000,0
1641445110.443,-75.684,-26.855,-6.836,-73.242,0.000,0
1641445110.447,-52.734,-24.414,-6.348,-56.152,0.000,0
1641445110.450,-62.012,-20.020,-7.812,-60.547,0.000,0
1641445110.454,-80.566,-28.320,-17.578,-64.941,0.000,0
1641445110.458,-74.219,-37.109,-20.020,-57.617,0.000,0
1641445110.462,-54.199,-22.949,-7.324,-49.316,0.000,0
1641445110.466,-52.246,-23.926,-7.324,-35.156,0.000,0
1641445110.470,-82.031,-25.391,-8.789,-49.805,0.000,0
1641445110.473,-76.660,-14.648,-0.977,-58.105,0.000,0
1641445110.478,-41.504,-9.766,6.348,-44.922,0.000,0
1641445110.482,-31.738,-13.184,2.441,-46.387,0.000,0
1641445110.485,-60.547,-21.484,-7.324,-56.641,0.000,0
1641445110.489,-77.148,-20.020,-5.371,-61.035,0.000,0
1641445110.493,-63.965,-17.578,0.488,-61.035,0.000,0
1641445110.497,-35.156,-23.438,-4.883,-46.875,0.000,0
1641445110.501,-48.828,-33.203,-12.207,-47.852,0.000,0
1641445110.505,-68.359,-25.391,-7.812,-65.430,0.000,0
1641445110.508,-66.406,-12.695,-0.977,-63.477,0.000,0
1641445110.512,-43.457,-19.043,3.906,-44.922,0.000,0
1641445110.516,-39.551,-18.555,7.812,-45.898,0.000,0
1641445110.520,-66.895,-10.742,10.254,-57.129,0.000,0
1641445110.525,-66.406,-16.602,5.859,-59.570,0.000,0
1641445110.528,-37.109,-29.297,1.465,-47.852,0.000,0
1641445110.532,-27.832,-29.297,3.906,-38.086,0.000,0
1641445110.536,-56.152,-26.855,-0.488,-54.199,0.000,0
1641445110.540,-74.219,-29.785,-3.418,-71.289,0.000,0
1641445110.544,-59.082,-32.227,-4.395,-50.781,0.000,0
1641445110.548,-50.781,-24.902,-9.766,-37.109,0.000,0
1641445110.551,-77.148,-15.137,-2.930,-49.805,0.000,0
1641445110.555,-82.031,-16.602,2.930,-73.242,0.000,0
1641445110.559,-57.617,-20.996,-4.395,-56.641,0.000,0
1641445110.563,-34.668,-19.531,-3.906,-32.715,0.000,0
1641445110.567,-55.176,-19.043,7.324,-59.570,0.000,1
1641445110.571,-77.148,-28.320,1.953,-71.777,0.000,0
1641445110.575,-79.590,-33.203,-8.301,-63.965,0.000,0
1641445110.579,-51.270,-32.227,-7.812,-49.316,0.000,0
1641445110.583,-46.875,-28.320,-3.418,-55.664,0.000,0
1641445110.587,-84.961,-27.344,-0.977,-68.359,0.000,0
1641445110.591,-87.402,-34.668,-3.906,-69.824,0.000,1
1641445110.595,-51.270,-32.715,-0.488,-50.781,0.000,0
1641445110.598,-51.270,-27.344,3.418,-41.016,0.000,0
1641445110.602,-74.707,-23.926,4.395,-56.152,0.000,0
1641445110.606,-70.312,-20.508,0.000,-61.523,0.000,0
1641445110.610,-61.035,-15.137,-2.930,-55.176,0.000,0
1641445110.614,-52.246,-21.973,-3.418,-48.340,0.000,0
1641445110.618,-68.848,-36.621,-5.371,-55.664,0.000,0
1641445110.622,-82.031,-36.133,-5.859,-64.941,0.000,0
1641445110.626,-66.895,-25.879,-4.883,-65.430,0.000,0
1641445110.630,-44.922,-27.344,-6.348,-54.688,0.000,0
1641445110.634,-56.641,-36.621,-10.742,-55.176,0.000,0
1641445110.637,-83.008,-26.855,-11.719,-58.594,0.000,0
1641445110.641,-76.660,-12.207,-5.371,-55.176,0.000,0
1641445110.645,-38.574,-9.277,3.418,-44.434,0.000,0
1641445110.649,-42.480,-30.762,-12.695,-42.480,0.000,0
1641445110.653,-70.312,-40.527,-18.066,-46.875,0.000,0
1641445110.657,-69.824,-24.902,-4.883,-66.895,0.000,0
1641445110.661,-48.340,-28.320,-8.301,-60.547,0.000,0
1641445110.665,-41.504,-31.250,-6.348,-46.387,0.000,0
1641445110.669,-59.570,-24.902,-0.977,-55.176,0.000,0
1641445110.673,-67.871,-26.855,-5.371,-59.082,0.000,0
1641445110.677,-53.223,-30.762,-10.742,-56.641,0.000,0
1641445110.680,-29.297,-24.902,-1.953,-42.480,0.000,0
1641445110.684,-61.035,-24.902,-0.977,-61.035,0.000,0
1641445110.688,-79.102,-27.344,-5.371,-73.242,0.000,0
1641445110.692,-63.965,-33.203,-2.930,-58.594,0.000,0
1641445110.696,-48.828,-39.551,-10.742,-39.551,0.000,0
1641445110.700,-57.129,-25.879,-6.348,-51.758,0.000,0
1641445110.703,-83.496,-12.207,-2.930,-71.777,0.000,0
1641445110.707,-83.496,-21.484,-13.184,-68.359,0.000,0
1641445110.712,-48.828,-30.273,-15.625,-53.711,0.000,0
1641445110.716,-46.387,-22.461,-10.254,-46.875,0.000,0
1641445110.719,-81.543,-18.066,-7.812,-66.895,0.000,0
1641445110.723,-87.891,-23.438,-8.789,-70.801,0.000,0
1641445110.727,-61.523,-26.855,-11.230,-62.988,0.000,0
1641445110.731,-47.852,-24.414,-6.836,-49.316,0.000,0
1641445110.735,-66.895,-20.020,-3.418,-62.500,0.000,0
1641445110.739,-74.219,-21.484,-14.160,-70.801,0.000,0
1641445110.742,-59.082,-20.020,-16.113,-66.406,0.000,0
1641445110.746,-49.805,-16.602,-9.277,-67.871,0.000,0
1641445110.750,-73.242,-21.973,-8.301,-75.195,0.000,0
1641445110.754,-95.215,-34.180,-16.113,-64.453,0.000,0
1641445110.758,-80.078,-32.227,-15.137,-54.199,0.000,0
1641445110.762,-51.758,-13.184,-7.812,-60.059,0.000,0
1641445110.766,-63.477,-21.484,-12.695,-69.824,0.000,0
1641445110.770,-84.473,-27.832,-10.254,-79.102,0.000,0
1641445110.774,-73.242,-20.996,-10.254,-76.660,0.000,0
1641445110.778,-47.852,-31.738,-15.625,-68.848,0.000,0
1641445110.781,-51.270,-37.109,-14.160,-61.523,0.000,0
1641445110.785,-75.684,-36.621,-20.508,-69.336,0.000,0
1641445110.789,-83.984,-29.785,-17.090,-78.613,0.000,0
1641445110.793,-72.266,-23.438,-3.906,-75.684,0.000,0
1641445110.797,-52.246,-28.320,-6.836,-59.082,0.000,0
1641445110.801,-75.195,-30.762,-8.301,-62.988,0.000,0
1641445110.805,-96.680,-31.250,-0.488,-72.266,0.000,0
1641445110.809,-70.801,-31.250,2.930,-69.824,0.000,0
