timestamps,TP9,AF7,AF8,TP10,Right AUX, Marker
1644802669.732,-137.207,-20.996,-30.273,-45.898,0.000,0
1644802669.736,-136.719,-27.832,-33.203,-27.344,0.000,0
1644802669.740,-142.090,-45.410,-30.273,-36.133,0.000,0
1644802669.744,-147.461,-58.105,-25.391,-52.246,0.000,0
1644802669.748,-134.766,-41.016,-23.926,-51.270,0.000,0
1644802669.751,-113.770,-23.438,-21.484,-43.457,0.000,0
1644802669.755,-112.793,-25.391,-22.949,-25.879,0.000,0
1644802669.759,-129.883,-35.156,-26.855,-27.832,0.000,0
1644802669.763,-145.508,-48.340,-28.809,-57.129,0.000,0
1644802669.767,-138.672,-36.621,-26.855,-64.453,0.000,0
1644802669.771,-118.652,-12.695,-25.391,-39.551,0.000,0
1644802669.774,-105.469,-25.391,-23.926,-6.836,0.000,0
1644802669.795,-117.676,-34.668,-25.391,-1.953,0.000,0
1644802669.799,-141.602,-28.320,-23.438,-29.297,0.000,0
1644802669.804,-140.625,-25.391,-21.484,-55.664,0.000,0
1644802669.808,-122.559,-7.324,-21.973,-46.387,0.000,0
1644802669.813,-112.793,-0.488,-20.996,-21.973,0.000,0
1644802669.817,-123.535,-22.949,-22.461,-16.602,0.000,0
1644802669.822,-137.207,-46.387,-16.113,-35.156,0.000,0
1644802669.826,-125.000,-34.180,-14.160,-58.594,0.000,0
1644802669.831,-119.629,-1.953,-20.020,-56.152,0.000,0
1644802669.835,-125.977,-5.371,-21.973,-34.180,0.000,0
1644802669.840,-132.812,-20.996,-23.438,-20.508,0.000,0
1644802669.844,-149.414,-39.551,-21.973,-41.504,0.000,0
1644802669.882,-147.461,-41.016,-22.949,-69.824,0.000,0
1644802669.888,-130.859,-13.672,-21.973,-59.082,0.000,0
1644802669.893,-129.883,-5.371,-18.066,-42.480,0.000,0
1644802669.899,-132.812,-13.184,-16.113,-39.062,0.000,0
1644802669.904,-147.949,-42.480,-22.461,-51.758,0.000,0
1644802669.909,-152.832,-47.363,-25.879,-76.172,0.000,0
1644802669.915,-132.812,-30.273,-19.531,-62.012,0.000,0
1644802669.920,-130.371,-20.996,-18.066,-32.227,0.000,0
1644802669.926,-137.695,-6.836,-21.973,-28.809,0.000,0
1644802669.931,-145.996,-28.320,-22.949,-40.527,0.000,0
1644802669.937,-145.020,-36.621,-21.973,-59.570,0.000,0
1644802669.942,-133.789,-13.672,-20.508,-62.012,0.000,0
1644802669.983,-129.395,-6.836,-18.066,-35.156,0.000,0
1644802669.989,-133.789,-15.625,-23.438,-25.391,0.000,0
1644802669.995,-149.902,-35.156,-26.367,-41.504,0.000,0
1644802670.001,-153.320,-44.434,-22.461,-49.805,0.000,1
1644802670.008,-138.672,-22.461,-22.461,-59.082,0.000,0
1644802670.014,-120.605,-12.695,-18.555,-34.180,0.000,0
1644802670.020,-125.488,-22.949,-20.508,-15.625,0.000,0
1644802670.026,-136.719,-41.016,-22.461,-37.109,0.000,0
1644802670.032,-142.090,-51.758,-25.879,-64.941,0.000,0
1644802670.039,-141.602,-28.809,-28.320,-65.918,0.000,0
1644802670.045,-128.418,0.000,-21.973,-39.062,0.000,0
1644802670.051,-124.023,0.977,-21.484,-30.273,0.000,0
1644802670.085,-139.160,-21.484,-18.066,-37.109,0.000,0
1644802670.092,-152.344,-51.758,-15.137,-46.387,0.000,0
1644802670.098,-136.230,-36.621,-20.996,-51.270,0.000,0
1644802670.105,-125.000,-10.254,-26.367,-55.176,0.000,0
1644802670.112,-132.324,-13.672,-24.902,-45.410,0.000,0
1644802670.118,-138.672,-28.809,-19.531,-38.086,0.000,0
1644802670.125,-146.973,-48.828,-18.066,-57.129,0.000,0
1644802670.132,-140.137,-33.691,-23.438,-69.824,0.000,0
1644802670.138,-132.812,-8.789,-32.715,-62.500,0.000,0
1644802670.145,-146.973,-4.883,-27.832,-44.434,0.000,0
1644802670.151,-152.832,-20.020,-23.438,-43.945,0.000,0
1644802670.158,-163.086,-43.457,-25.879,-75.195,0.000,0
1644802670.179,-160.156,-35.156,-25.879,-89.355,0.000,0
1644802670.186,-138.672,-6.348,-21.484,-56.641,0.000,0
1644802670.193,-128.906,-0.977,-14.160,-32.715,0.000,0
1644802670.200,-134.766,-14.160,-16.113,-40.039,0.000,0
1644802670.207,-155.762,-40.527,-20.996,-57.129,0.000,0
1644802670.214,-144.043,-46.387,-21.484,-67.383,0.000,0
1644802670.221,-125.977,-19.531,-20.996,-43.945,0.000,0
1644802670.227,-126.953,-12.695,-18.066,-32.227,0.000,0
1644802670.234,-124.023,-26.367,-16.113,-44.434,0.000,0
1644802670.241,-129.883,-44.434,-17.578,-54.688,0.000,0
1644802670.248,-142.090,-33.691,-22.949,-70.801,0.000,0
1644802670.255,-133.789,-7.812,-21.484,-68.359,0.000,0
1644802670.265,-123.047,0.488,-17.090,-52.734,0.000,0
1644802670.272,-121.582,-6.836,-13.672,-41.016,0.000,0
1644802670.279,-144.043,-28.809,-12.207,-54.688,0.000,0
1644802670.285,-155.762,-38.086,-17.578,-74.707,0.000,0
1644802670.292,-140.137,-17.090,-18.066,-67.383,0.000,0
1644802670.299,-130.859,-3.906,-12.207,-43.945,0.000,0
1644802670.306,-127.441,-1.953,-9.766,-42.480,0.000,0
1644802670.313,-140.137,-22.949,-13.184,-56.152,0.000,0
1644802670.320,-151.855,-39.062,-17.578,-69.336,0.000,0
1644802670.327,-136.230,-20.020,-17.578,-71.777,0.000,0
1644802670.334,-125.977,-3.418,-8.301,-51.270,0.000,0
1644802670.340,-132.324,-1.953,-6.348,-34.668,0.000,0
1644802670.341,-149.902,-25.391,-13.184,-41.992,0.000,0
1644802670.348,-161.621,-45.410,-18.066,-71.777,0.000,0
1644802670.355,-151.855,-27.832,-20.020,-83.008,0.000,0
1644802670.361,-139.160,-10.254,-17.578,-57.617,0.000,0
1644802670.368,-134.766,-20.020,-16.113,-39.551,0.000,0
1644802670.375,-145.996,-39.062,-20.996,-54.688,0.000,0
1644802670.382,-158.203,-54.199,-23.926,-77.148,0.000,0
1644802670.389,-147.949,-34.180,-23.926,-83.496,0.000,0
1644802670.396,-131.348,-4.395,-24.902,-69.336,0.000,0
1644802670.402,-134.277,-3.906,-21.484,-49.316,0.000,0
1644802670.409,-154.297,-26.367,-21.484,-48.828,0.000,0
1644802670.416,-156.738,-41.016,-20.508,-63.477,0.000,0
1644802670.409,-124.512,-29.297,-19.531,-67.871,0.000,0
1644802670.416,-115.723,-8.789,-15.625,-58.594,0.000,0
1644802670.422,-125.977,2.930,-6.836,-44.922,0.000,0
1644802670.429,-136.719,-16.602,-6.836,-44.434,0.000,0
1644802670.436,-148.926,-40.527,-11.230,-59.570,0.000,0
1644802670.442,-144.531,-34.668,-15.137,-79.102,0.000,0
1644802670.449,-134.766,-16.113,-16.602,-70.801,0.000,0
1644802670.456,-126.465,-9.766,-14.160,-49.316,0.000,0
1644802670.463,-137.695,-20.508,-15.625,-49.316,0.000,0
1644802670.469,-165.039,-48.828,-20.020,-64.453,0.000,0
1644802670.476,-141.602,-43.945,-15.625,-74.219,0.000,0
1644802670.483,-121.094,-34.180,-8.301,-44.922,0.000,0
1644802670.472,-128.906,-22.949,-7.812,-32.227,0.000,0
1644802670.478,-136.719,-13.672,-12.207,-47.852,0.000,0
1644802670.485,-143.555,-42.480,-9.766,-52.246,0.000,0
1644802670.491,-136.719,-42.969,-9.766,-68.359,0.000,0
1644802670.498,-125.488,-22.461,-14.160,-64.941,0.000,0
1644802670.504,-122.559,-11.719,-13.672,-46.387,0.000,0
1644802670.511,-121.582,-13.184,-14.648,-52.246,0.000,0
1644802670.517,-131.348,-35.645,-15.625,-70.312,0.000,0
1644802670.524,-140.625,-41.016,-16.113,-81.055,0.000,0
1644802670.530,-121.582,-7.324,-15.137,-72.754,0.000,0
1644802670.537,-104.980,-1.465,-16.113,-54.688,0.000,0
1644802670.543,-119.629,-12.207,-17.578,-48.828,0.000,0
1644802670.528,-136.230,-23.926,-14.160,-49.316,0.000,0
1644802670.534,-138.184,-38.574,-14.160,-66.406,0.000,0
1644802670.540,-128.418,-21.484,-18.066,-73.730,0.000,0
1644802670.547,-117.676,-2.930,-15.137,-46.387,0.000,0
1644802670.553,-122.070,-11.719,-14.648,-29.297,0.000,0
1644802670.560,-145.020,-42.480,-22.461,-50.293,0.000,0
1644802670.566,-148.438,-62.012,-19.531,-61.035,0.000,0
1644802670.572,-126.465,-32.715,-11.719,-51.270,0.000,0
1644802670.579,-110.352,5.371,-9.277,-39.551,0.000,0
1644802670.585,-123.535,-2.930,-10.742,-41.016,0.000,0
1644802670.591,-144.043,-31.250,-10.254,-62.012,0.000,0
1644802670.598,-142.578,-44.434,-8.301,-69.824,0.000,0
1644802670.578,-129.395,-24.414,-7.812,-65.430,0.000,0
1644802670.584,-109.863,-4.395,-8.789,-49.316,0.000,0
1644802670.591,-115.234,-8.301,-14.648,-39.062,0.000,0
1644802670.597,-136.230,-32.227,-17.578,-46.387,0.000,0
1644802670.603,-134.277,-49.805,-15.625,-68.848,0.000,0
1644802670.609,-125.488,-38.574,-14.648,-82.031,0.000,0
1644802670.615,-117.676,-20.508,-16.602,-54.688,0.000,0
1644802670.621,-110.352,-13.672,-17.090,-24.414,0.000,0
1644802670.628,-133.301,-27.344,-17.090,-35.645,0.000,0
1644802670.634,-156.250,-56.641,-20.020,-61.035,0.000,0
1644802670.640,-142.090,-41.992,-24.414,-77.148,0.000,0
1644802670.646,-118.652,-12.695,-18.066,-60.059,0.000,0
1644802670.624,-121.582,-9.766,-15.625,-44.922,0.000,0
1644802670.630,-127.441,-36.621,-16.113,-39.551,0.000,0
1644802670.636,-134.277,-65.430,-15.625,-46.387,0.000,0
1644802670.642,-139.160,-33.203,-23.926,-70.312,0.000,0
1644802670.648,-118.652,-7.812,-24.902,-49.316,0.000,0
1644802670.654,-113.281,-14.160,-24.414,-32.715,0.000,0
1644802670.660,-125.000,-23.438,-24.414,-31.738,0.000,0
1644802670.666,-147.949,-43.457,-24.414,-53.223,0.000,0
1644802670.672,-147.461,-34.668,-20.996,-91.309,0.000,0
1644802670.678,-117.188,-4.395,-18.066,-79.102,0.000,0
1644802670.684,-114.746,-1.953,-17.578,-52.734,0.000,0
1644802670.690,-140.137,-17.090,-18.066,-42.969,0.000,0
1644802670.668,-152.344,-43.945,-20.508,-54.199,0.000,0
1644802670.674,-143.066,-44.434,-18.066,-75.195,0.000,0
1644802670.680,-128.906,-15.625,-18.066,-71.777,0.000,0
1644802670.686,-121.094,-4.395,-16.113,-41.504,0.000,0
1644802670.692,-127.441,-16.602,-17.090,-39.551,0.000,0
1644802670.698,-137.695,-41.016,-14.648,-55.176,0.000,0
1644802670.703,-136.719,-35.156,-12.695,-57.129,0.000,0
1644802670.709,-120.117,-6.836,-17.578,-46.387,0.000,0
1644802670.715,-110.840,-5.371,-17.090,-31.738,0.000,0
1644802670.721,-123.047,-19.043,-23.438,-25.391,0.000,0
1644802670.727,-145.508,-25.879,-28.809,-42.480,0.000,0
1644802670.733,-143.555,-30.273,-24.902,-76.660,0.000,0
1644802670.709,-121.094,-17.090,-19.531,-67.383,0.000,0
1644802670.715,-114.746,0.488,-22.949,-39.062,0.000,0
1644802670.721,-121.094,-0.488,-21.973,-33.203,0.000,0
1644802670.726,-125.000,-21.973,-19.531,-45.898,0.000,0
1644802670.732,-138.672,-43.945,-18.555,-61.035,0.000,0
1644802670.738,-143.555,-28.320,-17.090,-68.359,0.000,0
1644802670.743,-146.484,3.418,-20.020,-63.477,0.000,0
1644802670.749,-145.508,0.977,-20.996,-49.805,0.000,0
1644802670.755,-141.602,-35.156,-13.672,-42.480,0.000,0
1644802670.760,-157.227,-50.781,-13.184,-68.359,0.000,0
1644802670.766,-162.109,-13.672,-17.578,-104.492,0.000,0
1644802670.772,-156.738,4.883,-24.902,-92.773,0.000,0
1644802670.747,-152.344,-17.578,-21.973,-61.523,0.000,0
1644802670.752,-171.875,-36.621,-20.020,-71.289,0.000,0
1644802670.758,-195.801,-29.785,-28.320,-115.723,0.000,0
1644802670.763,-175.293,-18.066,-21.973,-117.676,0.000,0
1644802670.769,-152.344,-22.949,-15.137,-80.078,0.000,0
1644802670.774,-164.551,-18.555,-17.090,-78.125,0.000,1
1644802670.780,-195.312,-22.949,-21.484,-106.445,0.000,0
1644802670.785,-203.125,-48.340,-20.508,-123.535,0.000,0
1644802670.791,-187.500,-45.410,-18.555,-123.535,0.000,0
1644802670.796,-180.664,-8.301,-17.578,-108.398,0.000,0
1644802670.802,-188.965,8.789,-10.254,-98.145,0.000,0
1644802670.807,-187.988,-22.949,-9.277,-85.449,0.000,0
1644802670.781,-192.871,-59.570,-11.230,-87.402,0.000,0
1644802670.787,-203.125,-35.156,-16.602,-114.258,0.000,0
1644802670.792,-188.477,-1.953,-20.020,-102.051,0.000,0
1644802670.797,-166.992,-6.836,-16.113,-63.477,0.000,0
1644802670.803,-166.504,-19.531,-14.160,-60.547,0.000,0
1644802670.808,-184.570,-43.457,-18.066,-84.961,0.000,0
1644802670.814,-174.805,-37.598,-19.043,-107.910,0.000,0
1644802670.819,-149.414,-19.043,-12.695,-73.242,0.000,0
1644802670.824,-149.902,-12.695,-15.625,-41.992,0.000,0
1644802670.830,-162.109,-1.465,-17.090,-68.848,0.000,0
1644802670.835,-162.109,-25.879,-13.672,-85.938,0.000,0
1644802670.840,-149.414,-43.945,-14.160,-77.637,0.000,0
1644802670.814,-133.301,-20.020,-14.648,-51.758,0.000,0
1644802670.819,-138.184,10.742,-16.113,-41.504,0.000,0
1644802670.824,-138.184,0.000,-11.230,-31.738,0.000,0
1644802670.829,-133.789,-41.504,-7.812,-27.344,0.000,0
1644802670.834,-140.137,-41.016,-8.789,-47.852,0.000,0
1644802670.840,-125.000,-0.488,-4.883,-49.805,0.000,0
1644802670.845,-106.934,7.812,-2.930,-20.020,0.000,0
1644802670.850,-105.469,-14.160,-9.766,-3.418,0.000,0
1644802670.855,-127.930,-33.691,-18.066,-36.621,0.000,0
1644802670.860,-150.879,-25.391,-19.043,-67.871,0.000,0
1644802670.866,-124.512,-7.324,-14.160,-58.105,0.000,0
1644802670.871,-113.770,-3.418,-14.648,-34.180,0.000,0
1644802670.845,-125.977,-6.348,-20.020,-32.715,0.000,0
1644802670.850,-136.230,-28.809,-17.090,-36.133,0.000,0
1644802670.855,-143.555,-50.781,-15.625,-55.176,0.000,0
1644802670.860,-132.812,-25.879,-21.484,-60.547,0.000,0
1644802670.865,-128.906,-2.441,-19.531,-29.785,0.000,0
1644802670.870,-136.230,-12.695,-18.555,-36.621,0.000,0
1644802670.876,-149.902,-41.016,-20.996,-35.156,0.000,0
1644802670.881,-153.320,-58.105,-19.531,-36.621,0.000,0
1644802670.886,-148.438,-21.484,-21.484,-47.852,0.000,0
1644802670.891,-134.766,2.441,-22.461,-30.762,0.000,0
1644802670.896,-118.652,-17.578,-15.625,-11.230,0.000,0
1644802670.901,-128.418,-36.621,-13.672,-11.230,0.000,0
1644802670.875,-155.273,-34.668,-22.461,-43.457,0.000,0
1644802670.879,-143.555,-21.973,-22.461,-57.617,0.000,0
1644802670.884,-118.164,-22.461,-17.090,-33.691,0.000,0
1644802670.889,-119.141,-17.090,-15.625,-22.461,0.000,0
1644802670.894,-135.254,-23.926,-17.578,-28.320,0.000,0
1644802670.899,-145.020,-52.246,-21.973,-41.992,0.000,0
1644802670.904,-126.953,-47.852,-22.949,-41.504,0.000,0
1644802670.909,-106.445,-9.277,-17.090,-24.414,0.000,0
1644802670.914,-117.188,16.602,-17.090,-22.949,0.000,0
1644802670.919,-128.418,-10.254,-15.625,-9.277,0.000,0
1644802670.924,-127.930,-50.781,-17.578,-20.020,0.000,0
1644802670.929,-133.789,-27.344,-17.578,-52.246,0.000,0
1644802670.905,-125.977,7.812,-7.812,-45.410,0.000,0
1644802670.910,-117.188,-3.906,-8.301,-14.160,0.000,0
1644802670.914,-132.812,-19.043,-13.672,-13.184,0.000,0
1644802670.919,-154.297,-35.645,-17.578,-38.086,0.000,0
1644802670.924,-150.391,-33.203,-18.066,-57.617,0.000,0
1644802670.929,-125.488,-17.578,-10.742,-32.227,0.000,0
1644802670.934,-118.652,-14.160,-8.301,2.441,0.000,0
1644802670.939,-130.371,-2.441,-19.043,-13.672,0.000,0
1644802670.943,-143.066,-18.066,-19.043,-45.898,0.000,0
1644802670.948,-137.207,-43.945,-13.672,-54.688,0.000,0
1644802670.953,-120.117,-21.973,-16.602,-58.105,0.000,0
1644802670.958,-125.977,13.184,-17.578,-49.805,0.000,0
1644802670.936,-133.789,-1.465,-15.137,-39.551,0.000,0
1644802670.941,-148.438,-34.180,-14.160,-52.246,0.000,0
1644802670.945,-160.156,-35.645,-17.578,-66.406,0.000,0
1644802670.950,-144.043,-13.184,-25.391,-61.035,0.000,0
1644802670.955,-134.277,-5.859,-24.414,-33.203,0.000,0
1644802670.960,-138.672,-15.137,-19.043,-27.832,0.000,0
1644802670.964,-141.602,-30.762,-15.137,-48.340,0.000,0
1644802670.969,-142.578,-41.016,-13.184,-66.406,0.000,0
1644802670.974,-139.160,-21.484,-11.719,-65.430,0.000,0
1644802670.979,-133.301,-7.324,-9.277,-41.992,0.000,0
1644802670.983,-143.555,-1.953,-18.555,-44.434,0.000,0
1644802670.988,-158.691,-18.555,-19.531,-55.176,0.000,0
1644802670.968,-152.832,-48.828,-15.625,-61.035,0.000,0
1644802670.973,-139.160,-26.855,-17.578,-68.359,0.000,0
1644802670.977,-141.602,5.859,-15.625,-46.387,0.000,0
1644802670.982,-141.602,-0.488,-10.742,-18.555,0.000,0
1644802670.987,-146.484,-33.691,-9.766,-22.461,0.000,0
1644802670.991,-157.227,-51.758,-16.113,-51.270,0.000,0
1644802670.996,-140.625,-21.484,-14.648,-58.105,0.000,0
1644802671.000,-123.047,5.371,-10.254,-40.527,0.000,0
1644802671.005,-122.559,-12.695,-14.648,-18.066,0.000,0
1644802671.010,-137.695,-31.250,-13.672,-16.602,0.000,0
1644802671.014,-154.297,-31.738,-10.742,-59.570,0.000,0
1644802671.019,-147.461,-20.996,-12.207,-61.035,0.000,0
1644802671.001,-131.836,-8.301,-9.766,-34.668,0.000,0
1644802671.005,-126.465,-7.324,-4.395,-40.039,0.000,0
1644802671.010,-133.301,-12.695,-3.906,-43.945,0.000,0
1644802671.014,-139.160,-35.156,-4.883,-50.293,0.000,0
1644802671.019,-139.648,-29.297,-5.371,-59.082,0.000,0
1644802671.024,-131.836,-3.418,-3.906,-53.711,0.000,0
1644802671.028,-131.348,0.000,-4.395,-39.062,0.000,0
1644802671.033,-140.137,-21.484,-8.301,-40.527,0.000,0
1644802671.037,-154.297,-47.852,-12.207,-49.316,0.000,0
1644802671.042,-150.879,-26.367,-17.578,-56.152,0.000,0
1644802671.046,-133.789,6.348,-13.672,-57.129,0.000,0
1644802671.051,-117.676,1.953,-8.789,-43.945,0.000,0
1644802671.034,-132.324,-19.043,-16.602,-37.598,0.000,0
1644802671.039,-159.668,-37.109,-16.602,-47.852,0.000,0
1644802671.043,-150.879,-30.762,-11.230,-70.801,0.000,0
1644802671.048,-125.488,-10.254,-8.301,-53.223,0.000,0
1644802671.052,-113.281,-3.906,-7.812,-28.809,0.000,0
1644802671.057,-124.023,-12.695,-11.719,-37.598,0.000,0
1644802671.061,-146.484,-33.691,-14.160,-59.570,0.000,0
1644802671.066,-145.020,-41.992,-5.859,-68.359,0.000,0
1644802671.070,-126.953,-17.090,-3.906,-54.688,0.000,0
1644802671.075,-119.629,5.859,-12.207,-47.852,0.000,0
1644802671.079,-117.676,-1.465,-7.324,-41.016,0.000,0
1644802671.084,-142.090,-35.156,-5.859,-54.688,0.000,0
1644802671.069,-148.438,-42.480,-12.695,-70.312,0.000,0
1644802671.073,-126.953,-10.742,-12.207,-65.430,0.000,0
1644802671.077,-118.652,-3.906,-9.766,-44.922,0.000,0
1644802671.082,-125.977,-14.648,-11.719,-31.250,0.000,0
1644802671.086,-145.508,-34.668,-15.625,-48.828,0.000,0
1644802671.091,-152.344,-49.316,-19.531,-76.660,0.000,0
1644802671.095,-143.066,-32.227,-21.973,-69.824,0.000,0
1644802671.100,-124.512,-22.461,-18.066,-46.875,0.000,0
1644802671.104,-120.605,-10.742,-16.602,-40.527,0.000,0
1644802671.108,-141.602,-23.926,-19.531,-53.711,0.000,0
1644802671.113,-147.949,-51.758,-15.137,-70.801,0.000,0
1644802671.117,-131.348,-30.762,-10.742,-68.848,0.000,0
1644802671.104,-125.977,-7.324,-13.184,-53.711,0.000,0
1644802671.108,-128.418,-7.324,-13.184,-35.156,0.000,0
1644802671.112,-138.184,-30.273,-10.254,-34.180,0.000,0
1644802671.117,-148.438,-47.363,-12.207,-58.594,0.000,0
1644802671.121,-140.137,-22.461,-12.695,-62.012,0.000,0
1644802671.125,-124.023,-4.395,-11.719,-49.316,0.000,0
1644802671.130,-114.746,-18.555,-5.371,-31.250,0.000,0
1644802671.134,-130.371,-34.668,-7.812,-31.250,0.000,0
1644802671.139,-147.461,-32.227,-17.578,-62.988,0.000,0
1644802671.143,-134.277,-17.578,-18.555,-71.777,0.000,0
1644802671.147,-115.234,-5.859,-20.996,-52.734,0.000,0
1644802671.152,-111.816,0.000,-20.996,-34.180,0.000,0
1644802671.139,-121.094,-11.230,-17.578,-41.504,0.000,0
1644802671.143,-145.508,-40.527,-19.043,-60.547,0.000,0
1644802671.148,-135.742,-34.180,-17.578,-60.547,0.000,0
1644802671.152,-117.676,-2.930,-8.789,-47.363,0.000,0
1644802671.156,-131.348,0.977,-7.812,-39.062,0.000,0
1644802671.161,-138.184,-20.996,-8.301,-22.949,0.000,0
1644802671.165,-141.113,-55.176,-11.230,-41.016,0.000,0
1644802671.169,-140.625,-40.039,-14.160,-66.406,0.000,0
1644802671.174,-128.418,3.418,-10.254,-56.641,0.000,0
1644802671.178,-115.234,8.789,-4.883,-42.480,0.000,0
1644802671.182,-126.465,-7.324,-8.789,-45.898,0.000,0
1644802671.186,-145.020,-28.809,-16.113,-62.012,0.000,0
1644802671.176,-142.090,-33.203,-18.066,-75.195,0.000,0
1644802671.180,-133.301,-13.184,-14.648,-65.918,0.000,0
1644802671.185,-125.977,0.000,-14.160,-38.574,0.000,0
1644802671.189,-133.789,0.488,-14.160,-29.785,0.000,0
1644802671.193,-156.250,-26.855,-12.695,-44.922,0.000,0
1644802671.197,-151.855,-50.293,-10.254,-51.758,0.000,0
1644802671.202,-128.906,-25.391,-10.254,-41.992,0.000,0
1644802671.206,-128.906,1.953,-11.230,-41.992,0.000,0
1644802671.210,-133.789,-2.930,-6.836,-39.551,0.000,0
1644802671.215,-145.508,-39.062,-6.348,-33.203,0.000,0
1644802671.219,-153.320,-47.852,-8.301,-62.988,0.000,0
1644802671.223,-129.883,-12.207,-4.883,-70.801,0.000,0
1644802671.214,-131.836,0.488,-6.348,-41.992,0.000,0
1644802671.218,-155.762,-12.207,-14.160,-40.039,0.000,0
1644802671.222,-161.133,-38.086,-15.137,-60.059,0.000,0
1644802671.226,-164.551,-53.711,-16.113,-79.590,0.000,0
1644802671.231,-146.484,-34.668,-16.113,-73.730,0.000,0
1644802671.235,-135.742,-22.461,-14.648,-49.316,0.000,0
1644802671.239,-146.973,-18.555,-16.602,-38.086,0.000,0
1644802671.243,-155.762,-32.715,-20.020,-37.598,0.000,0
1644802671.248,-155.762,-56.641,-21.973,-54.688,0.000,0
1644802671.252,-143.555,-40.039,-20.996,-66.406,0.000,0
1644802671.256,-134.766,-3.906,-22.461,-62.012,0.000,0
1644802671.260,-140.625,-5.859,-19.043,-55.664,0.000,0
1644802671.252,-155.273,-30.273,-14.160,-55.664,0.000,0
1644802671.256,-160.156,-45.410,-19.043,-64.941,0.000,0
1644802671.260,-151.855,-26.855,-17.578,-67.383,0.000,0
1644802671.264,-135.742,-4.883,-13.672,-47.363,0.000,0
1644802671.269,-135.742,-11.230,-14.648,-29.785,0.000,0
1644802671.273,-147.461,-28.320,-7.324,-28.809,0.000,0
1644802671.277,-150.879,-44.922,-5.859,-57.617,0.000,0
1644802671.281,-139.160,-28.809,-14.160,-77.148,0.000,0
1644802671.285,-121.094,-10.254,-13.184,-51.270,0.000,0
1644802671.290,-121.582,-4.883,-12.207,-38.574,0.000,0
1644802671.294,-134.277,-1.953,-12.695,-38.574,0.000,0
1644802671.298,-149.902,-29.785,-9.766,-53.223,0.000,0
1644802671.290,-144.043,-27.832,-7.324,-72.754,0.000,0
1644802671.294,-122.559,3.906,-5.371,-47.363,0.000,0
1644802671.298,-123.047,6.348,-10.742,-32.715,0.000,0
1644802671.303,-125.488,-6.348,-6.348,-32.227,0.000,0
1644802671.307,-138.184,-28.320,-1.465,-47.852,0.000,0
1644802671.311,-146.484,-27.832,-8.301,-76.660,0.000,0
1644802671.315,-140.137,-1.953,-7.324,-65.918,0.000,0
1644802671.319,-122.070,-0.977,-4.395,-32.227,0.000,0
1644802671.324,-120.605,-13.672,-5.859,-28.809,0.000,0
1644802671.328,-154.785,-25.391,-11.719,-72.266,0.000,0
1644802671.332,-157.227,-33.691,-9.766,-88.867,0.000,0
1644802671.336,-131.348,-13.184,-6.348,-70.312,0.000,0
1644802671.329,-128.906,8.301,-9.277,-49.316,0.000,0
1644802671.333,-147.949,2.930,-10.742,-41.992,0.000,0
1644802671.337,-170.898,-28.320,-11.719,-60.059,0.000,0
1644802671.341,-174.805,-38.086,-10.254,-87.891,0.000,0
1644802671.346,-145.508,-12.695,-8.301,-81.055,0.000,0
1644802671.350,-121.582,-5.371,-8.789,-49.316,0.000,0
1644802671.354,-139.648,-10.742,-8.301,-41.504,0.000,0
1644802671.358,-161.133,-46.387,-5.859,-56.641,0.000,0
1644802671.362,-156.250,-56.641,-8.789,-80.566,0.000,0
1644802671.366,-139.160,-10.742,-13.672,-87.402,0.000,0
1644802671.370,-133.789,0.000,-13.672,-57.129,0.000,0
1644802671.375,-134.277,-8.301,-15.137,-32.715,0.000,0
1644802671.368,-146.973,-30.762,-16.602,-43.457,0.000,0
1644802671.372,-162.598,-51.758,-15.137,-71.777,0.000,0
1644802671.376,-146.973,-28.809,-9.766,-70.312,0.000,0
1644802671.380,-132.324,-8.789,-11.230,-42.969,0.000,0
1644802671.385,-134.766,-7.324,-9.766,-32.227,0.000,0
1644802671.389,-148.926,-27.344,-8.301,-42.480,0.000,0
1644802671.393,-158.203,-53.223,-9.766,-63.477,0.000,0
1644802671.397,-143.066,-41.016,-13.672,-58.594,0.000,0
1644802671.401,-141.113,-1.953,-18.066,-56.152,0.000,0
1644802671.405,-134.277,8.301,-12.207,-47.852,0.000,0
1644802671.409,-135.254,-17.090,-8.301,-34.668,0.000,0
1644802671.413,-154.785,-42.969,-11.230,-56.641,0.000,0
1644802671.407,-138.184,-25.879,-16.113,-76.660,0.000,0
1644802671.412,-117.188,0.000,-16.113,-66.406,0.000,0
1644802671.416,-130.371,-9.766,-18.066,-46.875,0.000,0
1644802671.420,-142.578,-26.855,-18.066,-47.363,0.000,0
1644802671.424,-151.367,-43.945,-13.184,-62.012,0.000,0
1644802671.428,-151.855,-36.621,-13.184,-76.660,0.000,0
1644802671.432,-140.137,-20.996,-11.230,-57.617,0.000,0
1644802671.436,-134.766,-11.230,-9.766,-31.250,0.000,0
1644802671.440,-141.602,-4.395,-10.254,-42.969,0.000,0
1644802671.444,-151.367,-31.250,-6.348,-57.129,0.000,0
1644802671.448,-145.508,-25.391,-10.742,-67.383,0.000,0
1644802671.453,-131.348,4.395,-12.695,-52.246,0.000,0
1644802671.447,-122.559,10.742,-5.371,-29.297,0.000,0
1644802671.451,-133.789,-5.859,-5.859,-30.273,0.000,0
1644802671.455,-161.133,-33.203,-9.766,-50.781,0.000,0
1644802671.459,-160.156,-21.973,-4.395,-72.754,0.000,0
1644802671.463,-150.879,2.441,0.977,-60.059,0.000,0
1644802671.467,-140.625,-8.789,-2.930,-38.086,0.000,0
1644802671.472,-139.648,-32.715,-11.230,-33.691,0.000,0
1644802671.476,-161.621,-45.410,-18.066,-46.387,0.000,0
1644802671.480,-158.691,-33.203,-18.555,-70.801,0.000,0
1644802671.484,-141.113,-7.812,-11.230,-67.871,0.000,0
1644802671.488,-125.977,-1.953,-7.324,-58.105,0.000,0
1644802671.492,-123.535,-6.836,-8.789,-54.688,0.000,0
1644802671.487,-137.207,-22.949,-10.254,-53.711,0.000,0
1644802671.491,-144.043,-41.992,-11.230,-64.941,0.000,0
1644802671.495,-131.348,-23.438,-7.812,-58.594,0.000,0
1644802671.499,-119.141,0.000,-10.254,-54.688,0.000,0
1644802671.503,-129.883,-7.812,-12.207,-53.711,0.000,0
1644802671.507,-141.602,-38.574,-10.254,-40.039,0.000,0
1644802671.511,-149.902,-51.758,-16.602,-69.336,0.000,0
1644802671.515,-143.066,-19.043,-20.020,-95.215,0.000,0
1644802671.519,-128.418,0.977,-14.160,-65.918,0.000,0
1644802671.523,-132.324,-15.625,-9.766,-37.598,0.000,0
1644802671.528,-150.391,-36.133,-14.648,-41.992,0.000,0
1644802671.532,-164.062,-40.527,-17.090,-77.637,0.000,0
1644802671.528,-147.461,-22.949,-15.137,-88.867,0.000,0
1644802671.532,-134.766,-5.859,-12.695,-66.406,0.000,0
1644802671.536,-128.906,-3.906,-10.254,-43.457,0.000,0
1644802671.540,-137.207,-15.625,-9.766,-41.504,0.000,0
1644802671.544,-141.113,-34.668,-12.207,-61.523,0.000,0
1644802671.548,-112.793,-25.879,-13.184,-55.664,0.000,0
1644802671.552,-113.770,-6.836,-9.277,-42.969,0.000,0
1644802671.556,-128.418,-6.348,-5.859,-41.992,0.000,0
1644802671.560,-136.719,-21.973,-11.230,-53.711,0.000,0
1644802671.564,-146.973,-48.340,-14.648,-73.242,0.000,0
1644802671.568,-142.090,-32.715,-15.137,-82.031,0.000,0
1644802671.572,-125.000,-0.488,-15.137,-55.664,0.000,0
1644802671.571,-125.000,-6.348,-10.254,-24.902,0.000,0
1644802671.575,-145.020,-31.738,-12.207,-26.855,0.000,0
1644802671.579,-166.504,-42.480,-15.137,-47.363,0.000,0
1644802671.583,-162.598,-31.738,-13.672,-62.988,0.000,0
1644802671.587,-126.465,-21.484,-8.301,-42.480,0.000,0
1644802671.591,-118.164,-20.508,-6.348,-31.250,0.000,0
1644802671.595,-153.320,-21.484,-12.695,-46.387,0.000,0
1644802671.599,-178.223,-42.969,-18.555,-69.336,0.000,0
1644802671.603,-161.621,-44.434,-16.602,-67.383,0.000,0
1644802671.607,-133.301,-12.695,-16.602,-54.199,0.000,0
1644802671.611,-125.000,0.977,-20.508,-40.039,0.000,0
1644802671.616,-130.371,-13.672,-18.066,-34.180,0.000,0
1644802671.613,-142.090,-46.875,-16.602,-55.664,0.000,0
1644802671.617,-148.926,-47.363,-20.020,-72.754,0.000,0
1644802671.621,-130.371,-13.184,-21.484,-62.500,0.000,0
1644802671.625,-125.977,-9.766,-20.020,-39.551,0.000,0
1644802671.629,-133.301,-32.227,-18.555,-34.180,0.000,0
1644802671.633,-147.949,-49.805,-19.531,-45.410,0.000,0
1644802671.637,-158.691,-41.504,-19.531,-63.965,0.000,0
1644802671.641,-131.836,-26.855,-20.996,-62.500,0.000,0
1644802671.645,-130.859,-19.531,-24.414,-43.945,0.000,0
1644802671.649,-141.113,-12.695,-23.438,-35.156,0.000,0
1644802671.653,-148.438,-32.715,-18.066,-49.805,0.000,0
1644802671.657,-155.273,-52.246,-18.555,-78.125,0.000,0
1644802671.656,-136.719,-25.391,-23.438,-73.730,0.000,0
1644802671.660,-125.977,2.441,-22.461,-47.852,0.000,0
1644802671.664,-125.488,-4.395,-20.996,-32.715,0.000,0
1644802671.668,-133.301,-39.062,-16.113,-37.598,0.000,0
1644802671.672,-148.438,-59.570,-9.766,-51.270,0.000,0
1644802671.676,-137.695,-24.902,-11.230,-53.711,0.000,1
1644802671.680,-115.723,-2.441,-12.695,-40.527,0.000,0
1644802671.684,-117.676,-18.066,-10.254,-28.320,0.000,0
1644802671.688,-139.160,-40.039,-14.648,-40.527,0.000,0
1644802671.692,-163.574,-41.016,-22.461,-77.148,0.000,0
1644802671.696,-144.043,-22.461,-18.555,-72.754,0.000,0
1644802671.700,-115.234,-7.324,-16.113,-36.133,0.000,0
1644802671.698,-118.164,-13.184,-12.695,-31.250,0.000,0
1644802671.702,-133.301,-24.414,-9.277,-42.480,0.000,0
1644802671.706,-145.020,-48.828,-13.184,-57.129,0.000,0
1644802671.710,-134.766,-41.016,-18.555,-70.801,0.000,0
1644802671.714,-135.254,-13.184,-17.090,-49.805,0.000,0
1644802671.718,-134.277,-15.625,-15.137,-42.480,0.000,0
1644802671.722,-131.348,-32.715,-20.508,-41.016,0.000,0
1644802671.726,-152.344,-55.664,-23.926,-50.781,0.000,0
1644802671.730,-154.297,-34.180,-21.973,-90.332,0.000,0
1644802671.734,-130.859,-0.488,-13.672,-77.148,0.000,0
1644802671.738,-125.000,-10.742,-8.789,-41.504,0.000,0
1644802671.742,-134.277,-30.273,-10.254,-39.551,0.000,0
1644802671.740,-156.250,-41.016,-11.719,-71.289,0.000,0
1644802671.744,-152.832,-28.320,-13.672,-85.449,0.000,0
1644802671.748,-113.770,-11.719,-10.254,-60.059,0.000,0
1644802671.752,-110.840,-7.812,-12.695,-49.316,0.000,0
1644802671.756,-137.207,-6.836,-16.113,-47.363,0.000,0
1644802671.760,-139.648,-31.250,-12.695,-51.270,0.000,0
1644802671.764,-128.418,-41.992,-8.789,-72.266,0.000,0
1644802671.768,-125.000,-20.996,-12.695,-65.430,0.000,0
1644802671.772,-132.324,9.766,-19.043,-50.781,0.000,0
1644802671.776,-130.859,2.930,-11.719,-42.480,0.000,0
1644802671.780,-135.742,-38.086,-5.859,-51.270,0.000,0
1644802671.784,-152.344,-37.598,-7.324,-68.848,0.000,0
1644802671.783,-145.996,-2.441,-11.230,-68.359,0.000,0
1644802671.787,-134.277,-1.465,-13.672,-52.734,0.000,0
1644802671.791,-137.207,-11.719,-13.672,-48.340,0.000,0
1644802671.794,-149.414,-24.414,-14.160,-58.105,0.000,0
1644802671.798,-149.414,-31.250,-14.648,-68.359,0.000,0
1644802671.802,-126.953,-16.602,-11.719,-64.941,0.000,0
1644802671.806,-127.441,-12.695,-13.672,-36.133,0.000,0
1644802671.810,-140.625,-8.789,-17.090,-26.367,0.000,0
1644802671.814,-162.109,-19.531,-16.602,-55.176,0.000,0
1644802671.818,-161.133,-38.086,-13.184,-76.172,0.000,0
1644802671.822,-135.742,-16.602,-9.277,-65.430,0.000,0
1644802671.826,-134.277,7.324,-10.254,-49.316,0.000,0
1644802671.827,-135.742,-5.859,-10.254,-48.340,0.000,0
1644802671.831,-144.531,-37.109,-11.230,-49.805,0.000,0
1644802671.835,-143.066,-40.527,-19.043,-75.684,0.000,0
1644802671.839,-132.812,-13.184,-21.484,-88.379,0.000,0
1644802671.843,-136.230,-0.488,-20.020,-59.082,0.000,0
1644802671.847,-123.047,-11.719,-17.090,-44.434,0.000,0
1644802671.851,-136.230,-36.621,-11.230,-53.711,0.000,0
1644802671.855,-150.879,-45.410,-12.695,-72.266,0.000,0
1644802671.859,-139.160,-22.949,-12.695,-78.125,0.000,0
1644802671.863,-123.047,-21.484,-6.836,-49.316,0.000,0
1644802671.867,-121.094,-20.996,-7.324,-41.016,0.000,0
1644802671.871,-144.043,-18.066,-12.695,-58.105,0.000,0
1644802671.870,-158.203,-42.969,-14.160,-69.824,0.000,0
1644802671.874,-142.090,-33.691,-14.648,-82.520,0.000,0
1644802671.878,-136.719,-5.371,-17.090,-65.430,0.000,0
1644802671.882,-136.719,-1.465,-19.531,-52.246,0.000,0
1644802671.886,-136.230,-24.902,-22.461,-54.199,0.000,0
1644802671.890,-159.180,-50.293,-20.996,-68.359,0.000,0
1644802671.894,-157.715,-33.203,-19.531,-73.242,0.000,0
1644802671.898,-134.766,-2.930,-20.020,-51.758,0.000,0
1644802671.902,-134.277,0.488,-19.043,-42.480,0.000,0
1644802671.906,-148.438,-14.160,-20.996,-50.293,0.000,0
1644802671.910,-153.809,-29.297,-24.414,-77.637,0.000,0
1644802671.914,-141.113,-22.461,-20.508,-85.938,0.000,0
1644802671.915,-111.816,-6.836,-14.160,-55.664,0.000,0
1644802671.919,-111.328,-1.953,-17.578,-49.805,0.000,0
1644802671.922,-131.836,-3.906,-20.020,-51.270,0.000,0
1644802671.926,-148.438,-29.785,-16.602,-71.289,0.000,0
1644802671.930,-149.902,-50.293,-19.043,-87.891,0.000,0
1644802671.934,-132.324,-31.738,-19.043,-68.359,0.000,0
1644802671.938,-136.230,-1.953,-20.508,-62.988,0.000,0
1644802671.942,-135.742,-5.859,-22.461,-58.594,0.000,0
1644802671.946,-142.090,-42.480,-22.461,-63.965,0.000,0
1644802671.950,-153.320,-43.945,-26.367,-81.543,0.000,0
1644802671.954,-138.184,-9.766,-26.855,-77.148,0.000,0
1644802671.958,-125.000,0.977,-22.461,-59.082,0.000,0
1644802671.959,-134.277,-20.020,-18.066,-43.945,0.000,0
1644802671.962,-158.203,-38.086,-17.090,-54.688,0.000,0
1644802671.966,-157.715,-31.738,-18.066,-76.172,0.000,0
1644802671.970,-135.742,-12.207,-13.672,-67.871,0.000,0
1644802671.974,-122.559,2.441,-7.812,-43.945,0.000,0
1644802671.978,-124.023,-2.441,-8.301,-37.598,0.000,0
1644802671.982,-138.672,-24.902,-10.742,-53.711,0.000,0
1644802671.986,-149.414,-40.039,-13.672,-70.801,0.000,0
1644802671.990,-139.160,-17.578,-14.648,-72.266,0.000,0
1644802671.994,-122.559,5.859,-15.625,-57.129,0.000,0
1644802671.998,-126.465,1.953,-16.602,-47.363,0.000,0
1644802672.002,-132.812,-31.250,-16.602,-52.734,0.000,0
1644802672.004,-137.695,-45.410,-21.484,-83.008,0.000,0
1644802672.008,-137.695,-17.578,-20.020,-89.844,0.000,0
1644802672.012,-121.094,2.441,-13.184,-58.105,0.000,0
1644802672.016,-114.258,-10.254,-12.695,-32.715,0.000,0
1644802672.020,-132.324,-42.480,-16.113,-37.109,0.000,0
1644802672.024,-149.902,-50.781,-23.926,-70.312,0.000,0
1644802672.028,-132.324,-28.320,-17.578,-74.219,0.000,0
1644802672.032,-113.281,-5.859,-11.719,-51.758,0.000,0
1644802672.035,-113.281,2.441,-13.672,-39.062,0.000,0
1644802672.039,-130.859,-9.766,-10.742,-35.645,0.000,0
1644802672.043,-134.766,-34.180,-8.789,-50.293,0.000,0
1644802672.047,-109.863,-40.039,-7.812,-65.918,0.000,0
1644802672.048,-101.562,-20.020,-11.719,-48.340,0.000,0
1644802672.052,-109.375,2.930,-12.207,-30.273,0.000,0
1644802672.056,-120.117,-12.207,-10.742,-22.461,0.000,0
1644802672.060,-144.531,-37.598,-13.184,-38.574,0.000,0
1644802672.064,-140.137,-26.855,-10.742,-60.059,0.000,0
1644802672.068,-116.699,-2.441,-10.742,-59.082,0.000,0
1644802672.071,-116.211,0.488,-9.766,-37.598,0.000,0
1644802672.075,-125.488,-20.020,-7.812,-34.180,0.000,0
1644802672.079,-132.812,-40.039,-9.277,-60.547,0.000,0
1644802672.083,-131.836,-23.926,-13.184,-81.055,0.000,0
1644802672.087,-119.141,-3.418,-9.766,-64.453,0.000,0
1644802672.091,-112.305,-1.465,-7.324,-44.434,0.000,0
1644802672.093,-121.094,-1.465,-7.812,-42.969,0.000,0
1644802672.097,-139.648,-21.973,-9.277,-55.664,0.000,0
1644802672.101,-133.301,-33.691,-10.742,-68.848,0.000,0
1644802672.105,-111.816,-8.789,-8.789,-62.012,0.000,0
1644802672.109,-107.910,9.277,-11.230,-47.363,0.000,0
1644802672.113,-108.398,-3.906,-7.324,-29.785,0.000,0
1644802672.117,-117.676,-38.574,-9.766,-41.016,0.000,0
1644802672.121,-137.207,-54.199,-22.461,-77.148,0.000,0
1644802672.125,-136.230,-14.648,-26.855,-81.055,0.000,0
1644802672.129,-122.070,10.254,-20.508,-57.617,0.000,0
1644802672.133,-118.164,-11.230,-14.648,-32.715,0.000,0
1644802672.136,-130.371,-32.227,-14.648,-41.504,0.000,0
1644802672.137,-147.949,-23.438,-18.555,-74.219,0.000,0
1644802672.141,-125.977,-4.395,-15.625,-64.941,0.000,0
1644802672.145,-106.934,5.859,-14.160,-42.969,0.000,0
1644802672.149,-120.117,0.977,-11.230,-37.109,0.000,0
1644802672.153,-139.160,-24.902,-11.230,-50.781,0.000,0
1644802672.157,-142.578,-47.363,-12.207,-69.824,0.000,0
1644802672.161,-120.117,-31.250,-10.254,-60.059,0.000,0
1644802672.165,-104.980,-1.465,-10.742,-42.480,0.000,0
1644802672.169,-115.234,5.371,-11.230,-34.668,0.000,0
1644802672.173,-134.766,-21.484,-11.719,-41.992,0.000,0
1644802672.176,-140.137,-46.387,-14.160,-57.617,0.000,0
1644802672.180,-140.625,-18.555,-13.184,-65.918,0.000,0
1644802672.180,-140.137,8.301,-15.625,-58.105,0.000,0
1644802672.184,-124.023,-7.812,-12.695,-41.992,0.000,0
1644802672.188,-128.906,-25.879,-9.277,-40.039,0.000,0
1644802672.192,-143.555,-29.785,-8.789,-63.477,0.000,0
1644802672.196,-128.906,-14.160,-7.812,-79.590,0.000,0
1644802672.200,-104.492,-10.742,-8.301,-47.363,0.000,0
1644802672.204,-104.492,-17.090,-7.324,-22.949,0.000,0
1644802672.208,-133.301,-12.207,-9.277,-40.527,0.000,0
1644802672.212,-158.203,-29.297,-12.207,-68.848,0.000,0
1644802672.216,-137.207,-33.691,-6.836,-68.359,0.000,0
1644802672.220,-113.770,-8.301,-0.488,-42.480,0.000,0
1644802672.224,-134.766,12.207,-3.906,-47.363,0.000,0
1644802672.224,-145.508,-5.859,-4.395,-52.734,0.000,0
1644802672.228,-136.719,-34.668,-2.441,-62.500,0.000,0
1644802672.232,-130.859,-30.273,-7.812,-81.543,0.000,0
1644802672.236,-133.789,1.953,-10.742,-67.871,0.000,0
1644802672.240,-139.648,4.395,-8.789,-36.621,0.000,0
1644802672.244,-135.254,-15.137,-3.906,-35.156,0.000,0
1644802672.248,-135.254,-33.691,-6.836,-57.129,0.000,0
1644802672.252,-139.160,-21.484,-9.766,-77.148,0.000,0
1644802672.256,-128.418,6.348,-6.836,-69.824,0.000,0
1644802672.260,-125.977,6.836,-7.812,-32.715,0.000,0
1644802672.264,-137.695,-0.488,-14.648,-26.855,0.000,0
1644802672.268,-154.785,-22.949,-15.625,-39.551,0.000,0
1644802672.269,-152.344,-38.574,-15.625,-60.059,0.000,0
1644802672.273,-129.883,-19.531,-10.742,-64.941,0.000,0
1644802672.277,-132.324,10.254,-7.812,-56.152,0.000,0
1644802672.281,-149.902,4.395,-10.742,-56.152,0.000,0
1644802672.285,-156.738,-35.156,-12.695,-55.176,0.000,0
1644802672.289,-156.738,-43.457,-19.531,-70.312,0.000,0
1644802672.293,-144.531,-6.836,-18.066,-70.312,0.000,0
1644802672.297,-132.324,15.137,-8.301,-48.828,0.000,0
1644802672.300,-125.977,-5.859,-2.930,-37.109,0.000,0
1644802672.304,-134.766,-33.691,-2.441,-43.457,0.000,0
1644802672.308,-153.320,-24.414,-9.766,-68.359,0.000,0
1644802672.312,-143.555,-6.348,-10.742,-63.477,0.000,0
1644802672.313,-128.906,0.977,-9.277,-41.992,0.000,0
1644802672.317,-136.719,-6.348,-12.695,-36.133,0.000,0
1644802672.321,-150.391,-26.855,-8.301,-45.898,0.000,0
1644802672.325,-148.438,-40.527,-1.465,-61.035,0.000,0
1644802672.329,-132.324,-20.996,0.488,-55.176,0.000,0
1644802672.333,-121.582,-0.488,-1.465,-41.016,0.000,0
1644802672.337,-124.512,-3.418,-9.277,-39.551,0.000,0
1644802672.341,-141.602,-30.273,-14.648,-56.641,0.000,0
1644802672.345,-162.598,-49.805,-17.578,-80.078,0.000,0
1644802672.348,-150.879,-18.555,-15.625,-78.613,0.000,0
1644802672.352,-129.883,7.812,-11.230,-47.852,0.000,0
1644802672.356,-131.348,-2.441,-13.184,-24.902,0.000,0
1644802672.359,-146.973,-32.227,-13.184,-45.410,0.000,0
1644802672.363,-162.598,-42.480,-16.113,-84.473,0.000,0
1644802672.367,-155.273,-27.344,-19.043,-85.938,0.000,0
1644802672.370,-141.113,-11.719,-17.090,-68.848,0.000,0
1644802672.374,-143.066,-13.672,-16.602,-63.477,0.000,0
1644802672.378,-162.598,-37.109,-18.066,-66.406,0.000,0
1644802672.382,-170.898,-53.711,-18.555,-82.520,0.000,0
1644802672.386,-152.344,-44.922,-16.602,-77.637,0.000,0
1644802672.390,-147.949,-20.996,-15.137,-59.082,0.000,0
1644802672.394,-158.691,-0.488,-18.066,-53.711,0.000,0
1644802672.398,-163.574,-13.672,-18.555,-51.758,0.000,0
1644802672.402,-169.434,-40.527,-19.531,-77.637,0.000,0
1644802672.403,-158.691,-32.715,-20.996,-100.098,0.000,0
1644802672.407,-133.301,-6.836,-21.484,-94.238,0.000,0
1644802672.411,-132.812,-5.859,-16.113,-70.801,0.000,0
1644802672.415,-140.137,-14.648,-15.137,-56.641,0.000,0
1644802672.418,-143.066,-28.809,-14.648,-72.266,0.000,0
1644802672.422,-136.230,-35.156,-16.113,-95.703,0.000,0
1644802672.426,-128.418,-18.555,-19.531,-72.754,0.000,0
1644802672.430,-135.254,-12.207,-17.578,-42.480,0.000,0
1644802672.434,-145.996,-15.137,-19.043,-53.711,0.000,0
1644802672.438,-161.621,-33.203,-22.461,-64.941,0.000,0
1644802672.442,-156.738,-45.410,-21.484,-82.520,0.000,0
1644802672.446,-141.113,-29.297,-18.555,-78.125,0.000,0
1644802672.448,-137.207,-8.789,-19.043,-53.223,0.000,0
1644802672.452,-139.160,-12.695,-20.996,-50.781,0.000,0
1644802672.456,-150.879,-51.270,-21.973,-56.152,0.000,0
1644802672.460,-155.762,-62.988,-20.996,-70.312,0.000,0
1644802672.464,-154.785,-23.438,-25.879,-78.613,0.000,0
1644802672.468,-140.625,-6.836,-21.484,-57.617,0.000,0
1644802672.472,-129.395,-26.367,-11.719,-34.668,0.000,0
1644802672.476,-144.531,-47.363,-16.113,-49.316,0.000,0
1644802672.479,-159.668,-36.133,-22.461,-90.820,0.000,0
1644802672.483,-145.508,-15.137,-22.949,-77.637,0.000,0
1644802672.487,-132.812,-0.488,-16.113,-50.781,0.000,0
1644802672.491,-126.465,-3.418,-11.230,-45.898,0.000,0
1644802672.492,-136.230,-26.367,-13.672,-59.082,0.000,0
1644802672.496,-151.367,-41.504,-20.996,-79.102,0.000,0
1644802672.500,-138.184,-22.461,-25.879,-76.172,0.000,0
1644802672.504,-136.719,-5.371,-25.391,-66.895,0.000,0
1644802672.508,-142.578,-7.812,-20.996,-61.035,0.000,0
1644802672.512,-148.926,-25.879,-15.137,-65.430,0.000,0
1644802672.516,-159.668,-50.781,-17.090,-78.613,0.000,0
1644802672.520,-144.531,-36.133,-16.602,-84.961,0.000,0
1644802672.524,-133.789,-4.883,-16.113,-63.965,0.000,0
1644802672.527,-137.207,-2.930,-16.602,-51.758,0.000,0
1644802672.531,-145.508,-24.902,-12.695,-66.406,0.000,0
1644802672.535,-166.016,-36.133,-13.672,-87.891,0.000,0
1644802672.538,-155.762,-18.066,-11.719,-94.727,0.000,0
1644802672.542,-128.418,-8.301,-8.789,-69.336,0.000,0
1644802672.546,-130.371,-16.113,-14.160,-37.598,0.000,0
1644802672.549,-154.785,-13.672,-13.672,-45.410,0.000,0
1644802672.553,-171.875,-32.227,-15.625,-70.801,0.000,1
1644802672.557,-152.832,-43.457,-18.066,-70.801,0.000,0
1644802672.561,-129.395,-15.625,-17.090,-57.617,0.000,0
1644802672.565,-132.812,13.184,-19.043,-56.152,0.000,0
1644802672.569,-137.207,-4.395,-16.113,-48.828,0.000,0
1644802672.573,-146.484,-41.992,-20.508,-62.988,0.000,0
1644802672.577,-154.297,-32.715,-21.484,-83.496,0.000,0
1644802672.581,-142.578,3.418,-14.160,-74.219,0.000,0
1644802672.582,-127.930,4.883,-9.277,-53.223,0.000,0
1644802672.586,-130.859,-5.371,-11.719,-49.316,0.000,0
1644802672.590,-150.879,-23.438,-12.207,-61.035,0.000,0
1644802672.594,-154.785,-22.949,-12.207,-74.707,0.000,0
1644802672.598,-134.277,-2.441,-11.719,-71.777,0.000,0
1644802672.601,-122.559,-1.953,-14.648,-57.129,0.000,0
1644802672.605,-124.023,-7.324,-20.020,-55.176,0.000,0
1644802672.609,-139.648,-27.344,-25.879,-64.453,0.000,0
1644802672.613,-144.043,-34.180,-22.461,-82.520,0.000,0
1644802672.617,-131.836,-7.324,-18.555,-80.078,0.000,0
1644802672.621,-127.441,10.742,-17.578,-48.828,0.000,0
1644802672.625,-126.465,-3.906,-10.254,-24.414,0.000,0
1644802672.627,-141.113,-41.016,-7.324,-32.227,0.000,0
1644802672.631,-141.602,-50.293,-7.812,-60.059,0.000,0
1644802672.635,-126.465,-6.836,-11.230,-81.055,0.000,0
1644802672.639,-124.512,12.207,-14.160,-67.383,0.000,0
1644802672.643,-120.117,-7.324,-11.719,-40.527,0.000,0
1644802672.647,-129.883,-33.203,-11.719,-42.969,0.000,0
1644802672.651,-144.043,-24.902,-18.066,-75.684,0.000,0
1644802672.655,-140.137,-2.930,-18.066,-77.148,0.000,0
1644802672.659,-132.324,-6.348,-15.137,-41.504,0.000,0
1644802672.662,-125.488,-4.395,-15.625,-27.344,0.000,0
1644802672.666,-142.578,-11.719,-20.996,-40.527,0.000,0
1644802672.670,-151.367,-36.621,-21.484,-58.594,0.000,0
1644802672.672,-135.742,-23.926,-15.625,-63.965,0.000,0
1644802672.676,-123.047,1.465,-15.137,-51.758,0.000,0
1644802672.680,-116.699,1.953,-15.625,-46.875,0.000,0
1644802672.684,-132.324,-15.137,-15.625,-43.457,0.000,0
1644802672.688,-147.949,-36.133,-16.113,-59.570,0.000,0
1644802672.692,-137.695,-25.391,-19.043,-70.801,0.000,0
1644802672.696,-123.047,-3.906,-19.531,-54.688,0.000,0
1644802672.699,-120.117,-5.371,-15.625,-34.668,0.000,0
1644802672.703,-131.836,-21.973,-15.625,-52.246,0.000,0
1644802672.707,-154.297,-39.062,-16.602,-80.566,0.000,0
1644802672.711,-147.461,-20.508,-16.113,-83.008,0.000,0
1644802672.715,-114.258,-4.883,-13.184,-52.246,0.000,0
1644802672.718,-111.328,-10.742,-10.742,-24.414,0.000,0
1644802672.722,-138.184,-6.836,-16.113,-31.738,0.000,0
1644802672.726,-146.973,-24.902,-17.090,-56.152,0.000,0
1644802672.730,-134.766,-30.273,-14.160,-65.430,0.000,0
1644802672.734,-120.605,-7.812,-20.508,-51.270,0.000,0
1644802672.738,-122.559,-2.441,-26.855,-46.875,0.000,0
1644802672.741,-133.301,-18.066,-23.438,-55.664,0.000,0
1644802672.745,-138.672,-55.664,-26.367,-71.289,0.000,0
1644802672.749,-136.719,-49.805,-32.715,-85.938,0.000,0
1644802672.753,-128.418,-2.930,-29.297,-74.707,0.000,0
1644802672.757,-126.465,1.465,-26.855,-50.781,0.000,0
1644802672.761,-138.184,-16.113,-26.855,-48.340,0.000,0
1644802672.763,-147.949,-39.062,-26.855,-56.641,0.000,0
1644802672.767,-130.859,-33.203,-26.367,-77.148,0.000,0
1644802672.771,-109.863,-11.719,-21.973,-70.801,0.000,0
1644802672.775,-107.422,-3.906,-18.066,-49.316,0.000,0
1644802672.778,-103.516,-8.301,-19.531,-52.734,0.000,0
1644802672.782,-116.699,-33.203,-19.043,-63.965,0.000,0
1644802672.786,-129.395,-41.016,-16.602,-67.383,0.000,0
1644802672.790,-105.469,-19.531,-17.090,-55.664,0.000,0
1644802672.794,-96.680,-0.977,-13.672,-46.875,0.000,0
1644802672.798,-121.094,2.930,-13.184,-44.434,0.000,0
1644802672.802,-131.348,-24.902,-13.672,-50.293,0.000,0
1644802672.806,-140.137,-40.039,-15.625,-72.266,0.000,0
1644802672.808,-142.578,-13.672,-19.531,-67.383,0.000,0
1644802672.812,-128.906,2.441,-21.484,-48.340,0.000,0
1644802672.816,-131.836,-9.766,-22.461,-40.039,0.000,0
1644802672.820,-143.555,-39.551,-20.020,-47.363,0.000,0
1644802672.824,-149.414,-39.062,-18.555,-65.918,0.000,0
1644802672.828,-126.953,-20.996,-16.602,-65.918,0.000,0
1644802672.832,-93.750,-10.742,-15.137,-38.086,0.000,0
1644802672.835,-106.445,-5.371,-16.113,-27.344,0.000,0
1644802672.839,-130.371,-11.719,-20.020,-50.293,0.000,0
1644802672.843,-133.301,-34.180,-20.020,-51.758,0.000,0
1644802672.847,-127.930,-27.344,-19.043,-55.176,0.000,0
1644802672.851,-117.188,-5.371,-18.066,-57.617,0.000,0
1644802672.853,-124.023,5.371,-19.043,-49.805,0.000,0
1644802672.857,-145.996,-12.207,-23.926,-44.922,0.000,0
1644802672.861,-152.832,-32.715,-21.484,-54.688,0.000,0
1644802672.865,-136.719,-15.137,-20.020,-62.012,0.000,0
1644802672.869,-119.629,5.371,-20.508,-44.434,0.000,0
1644802672.872,-120.117,1.953,-18.066,-25.879,0.000,0
1644802672.876,-136.230,-22.949,-21.484,-36.133,0.000,0
1644802672.880,-148.926,-40.527,-24.414,-59.570,0.000,0
1644802672.884,-126.953,-17.090,-24.902,-62.012,0.000,0
1644802672.888,-108.398,5.859,-19.043,-37.598,0.000,0
1644802672.892,-114.746,-4.883,-15.137,-19.043,0.000,0
1644802672.896,-123.047,-6.836,-22.461,-33.691,0.000,0
1644802672.899,-123.535,-17.090,-23.438,-53.711,0.000,0
1644802672.903,-118.652,-21.973,-15.137,-61.035,0.000,0
1644802672.907,-102.051,-4.883,-9.766,-40.039,0.000,0
1644802672.911,-103.027,7.812,-8.301,-17.090,0.000,0
1644802672.914,-117.676,-3.906,-3.906,-21.484,0.000,0
1644802672.918,-129.883,-45.410,-2.930,-20.508,0.000,0
1644802672.922,-128.418,-44.922,-8.301,-41.992,0.000,0
1644802672.926,-120.117,-7.324,-9.766,-49.805,0.000,0
1644802672.930,-119.141,-0.488,-2.441,-31.738,0.000,0
1644802672.934,-120.605,-20.020,2.930,-21.484,0.000,0
1644802672.938,-136.719,-39.062,-0.977,-26.855,0.000,0
1644802672.942,-133.789,-34.668,-5.371,-46.387,0.000,0
1644802672.944,-111.328,-11.719,-2.441,-45.898,0.000,0
1644802672.948,-105.957,0.000,1.465,-24.414,0.000,0
1644802672.952,-111.328,-5.371,3.418,-19.043,0.000,0
1644802672.956,-125.000,-28.320,1.953,-31.738,0.000,0
1644802672.960,-138.672,-43.457,-1.465,-47.852,0.000,0
1644802672.964,-135.254,-24.902,-5.371,-52.246,0.000,0
1644802672.968,-123.535,-4.395,-10.254,-38.574,0.000,0
1644802672.971,-122.559,-9.766,-11.719,-43.945,0.000,0
1644802672.975,-140.625,-37.598,-12.695,-61.035,0.000,0
1644802672.979,-137.695,-50.781,-16.602,-70.312,0.000,0
1644802672.983,-117.676,-19.043,-16.602,-65.918,0.000,0
1644802672.987,-118.164,2.930,-13.672,-38.574,0.000,0
1644802672.990,-114.258,-11.719,-11.719,-28.320,0.000,0
1644802672.993,-113.770,-36.133,-2.930,-26.367,0.000,0
1644802672.997,-123.047,-35.156,-4.395,-47.852,0.000,0
1644802673.001,-116.699,-13.672,-9.277,-68.359,0.000,0
1644802673.005,-116.699,-4.883,-9.277,-47.852,0.000,0
1644802673.009,-121.582,-10.742,-10.742,-32.715,0.000,0
1644802673.013,-127.441,-25.391,-6.836,-32.715,0.000,0
1644802673.017,-134.277,-36.621,-6.836,-61.035,0.000,0
1644802673.021,-120.605,-32.715,-7.324,-70.312,0.000,0
1644802673.024,-111.816,-7.812,-4.883,-32.715,0.000,0
1644802673.028,-123.047,12.207,-3.418,-20.020,0.000,0
1644802673.032,-136.230,-14.648,-1.953,-30.762,0.000,0
1644802673.035,-139.648,-38.574,-4.883,-47.363,0.000,0
1644802673.039,-117.676,-18.555,-6.348,-56.152,0.000,0
1644802673.043,-111.816,5.371,-0.977,-32.715,0.000,0
1644802673.047,-115.234,-2.930,-5.859,-19.531,0.000,0
1644802673.050,-124.512,-25.391,-11.230,-44.434,0.000,0
1644802673.054,-134.766,-42.969,-10.254,-59.570,0.000,0
1644802673.058,-127.441,-32.715,-9.277,-62.012,0.000,0
1644802673.062,-119.141,-4.883,-8.789,-50.293,0.000,0
1644802673.066,-111.328,-12.695,-12.207,-29.297,0.000,0
1644802673.070,-131.836,-22.949,-18.066,-41.504,0.000,0
1644802673.074,-156.738,-27.832,-23.926,-60.547,0.000,0
1644802673.078,-141.602,-32.227,-21.973,-71.289,0.000,0
1644802673.081,-118.164,-8.789,-21.484,-65.918,0.000,0
1644802673.085,-113.281,8.789,-21.973,-36.133,0.000,0
1644802673.089,-128.418,-1.465,-15.137,-31.738,0.000,0
1644802673.092,-134.277,-40.527,-6.836,-43.945,0.000,0
1644802673.096,-133.301,-38.574,-6.836,-52.246,0.000,0
1644802673.100,-126.465,-4.395,-7.324,-51.758,0.000,0
1644802673.104,-115.234,0.977,-7.812,-29.785,0.000,0
1644802673.108,-121.094,-16.602,-4.883,-15.625,0.000,0
1644802673.112,-135.254,-43.457,-0.488,-43.457,0.000,0
1644802673.116,-139.160,-27.344,-5.859,-76.172,0.000,0
1644802673.120,-120.605,-0.977,-6.348,-62.012,0.000,0
1644802673.123,-109.863,3.906,-4.883,-39.062,0.000,0
1644802673.126,-121.582,-2.441,-6.348,-40.039,0.000,0
1644802673.130,-143.066,-25.879,-7.812,-56.152,0.000,0
1644802673.134,-140.137,-36.133,-7.324,-65.430,0.000,0
1644802673.138,-125.000,-14.648,-12.207,-64.941,0.000,0
1644802673.141,-118.164,5.371,-11.230,-44.434,0.000,0
1644802673.145,-121.582,0.977,-10.254,-26.855,0.000,0
1644802673.149,-137.695,-31.738,-8.789,-36.133,0.000,0
1644802673.153,-147.949,-43.457,-8.789,-59.082,0.000,0
1644802673.157,-140.137,-12.207,-8.789,-68.359,0.000,0
1644802673.161,-123.535,11.230,-4.395,-45.898,0.000,0
1644802673.165,-123.047,0.977,-4.395,-36.133,0.000,0
1644802673.169,-142.578,-37.598,-11.719,-36.621,0.000,0
1644802673.172,-155.762,-37.109,-20.996,-59.082,0.000,0
1644802673.176,-132.324,-7.812,-18.066,-77.148,0.000,0
1644802673.180,-121.094,2.930,-11.719,-48.828,0.000,0
1644802673.184,-135.254,5.859,-13.184,-29.785,0.000,0
1644802673.188,-147.949,-15.137,-19.531,-52.734,0.000,0
1644802673.192,-146.484,-39.551,-21.484,-74.219,0.000,0
1644802673.196,-127.930,-32.227,-17.578,-68.848,0.000,0
1644802673.199,-115.234,-8.789,-17.090,-46.875,0.000,0
1644802673.203,-126.953,10.742,-19.043,-43.457,0.000,0
1644802673.207,-138.672,-12.695,-12.207,-44.922,0.000,0
1644802673.211,-141.113,-39.551,-11.719,-52.246,0.000,0
1644802673.215,-133.789,-22.461,-15.137,-71.777,0.000,0
1644802673.217,-121.094,6.348,-15.137,-70.312,0.000,0
1644802673.221,-122.070,3.906,-16.602,-50.293,0.000,0
1644802673.225,-133.789,-19.043,-18.555,-51.270,0.000,0
1644802673.229,-145.996,-36.621,-19.531,-62.988,0.000,0
1644802673.233,-136.230,-27.344,-17.090,-68.359,0.000,0
1644802673.237,-112.305,-5.859,-12.207,-55.176,0.000,0
1644802673.241,-109.863,-2.441,-10.254,-31.738,0.000,0
1644802673.245,-117.676,-12.695,-9.766,-37.598,0.000,0
1644802673.248,-137.207,-35.156,-10.742,-58.594,0.000,0
1644802673.252,-138.672,-34.180,-5.371,-63.965,0.000,0
1644802673.256,-114.746,-7.324,-2.441,-52.246,0.000,0
1644802673.260,-115.723,6.348,-8.789,-30.762,0.000,0
1644802673.263,-133.789,-1.465,-12.695,-32.715,0.000,0
1644802673.267,-139.160,-41.016,-16.113,-50.293,0.000,0
1644802673.271,-130.859,-46.875,-9.766,-61.035,0.000,0
1644802673.275,-116.211,-1.465,-9.277,-61.523,0.000,0
1644802673.279,-107.910,11.230,-10.254,-35.645,0.000,0
1644802673.282,-102.539,-13.184,-6.348,-23.438,0.000,0
1644802673.286,-123.535,-34.668,-14.160,-45.410,0.000,0
1644802673.290,-150.879,-26.855,-18.066,-76.660,0.000,0
1644802673.294,-126.953,-2.930,-13.672,-63.477,0.000,0
1644802673.298,-110.352,-0.977,-12.695,-25.391,0.000,0
1644802673.302,-129.883,-9.277,-13.184,-36.133,0.000,0
1644802673.306,-147.949,-27.832,-9.766,-50.293,0.000,0
1644802673.309,-140.625,-36.133,-11.719,-65.918,0.000,0
1644802673.313,-121.582,-3.418,-13.672,-73.730,0.000,0
1644802673.317,-111.816,20.020,-14.160,-51.270,0.000,0
1644802673.320,-112.793,13.672,-14.648,-41.016,0.000,0
1644802673.324,-134.277,-16.602,-15.137,-53.223,0.000,0
1644802673.328,-148.438,-40.527,-15.137,-69.336,0.000,0
1644802673.332,-144.043,-27.344,-17.090,-74.219,0.000,0
1644802673.336,-130.371,-6.348,-21.973,-50.293,0.000,0
1644802673.340,-123.535,-5.859,-20.508,-27.832,0.000,0
1644802673.344,-135.742,-35.156,-16.113,-24.902,0.000,0
1644802673.347,-145.996,-41.016,-16.113,-59.082,0.000,0
1644802673.351,-134.766,-9.766,-10.742,-77.148,0.000,0
1644802673.355,-125.488,-5.371,-6.836,-46.387,0.000,0
1644802673.359,-127.441,-14.648,-9.277,-19.531,0.000,0
1644802673.363,-134.766,-22.461,-8.789,-33.203,0.000,0
1644802673.367,-138.184,-38.086,-7.812,-65.918,0.000,0
1644802673.370,-120.117,-26.855,-12.207,-69.824,0.000,0
1644802673.374,-105.469,-10.742,-12.207,-52.734,0.000,0
1644802673.378,-117.676,-6.836,-14.160,-43.945,0.000,0
1644802673.382,-134.277,-13.184,-17.090,-55.664,0.000,0
1644802673.386,-140.137,-48.828,-20.020,-73.730,0.000,0
1644802673.390,-130.859,-47.363,-22.461,-72.754,0.000,0
1644802673.394,-123.047,-2.930,-20.508,-62.012,0.000,0
1644802673.398,-120.117,0.488,-17.090,-44.434,0.000,0
1644802673.401,-125.488,-17.090,-16.113,-48.828,0.000,0
1644802673.404,-140.137,-35.645,-15.625,-68.848,0.000,0
1644802673.408,-143.555,-28.320,-15.137,-83.496,0.000,1
1644802673.412,-128.418,-6.348,-12.207,-68.359,0.000,0
1644802673.416,-117.188,-3.906,-13.184,-37.109,0.000,0
1644802673.420,-125.488,-13.184,-15.137,-30.273,0.000,0
1644802673.424,-143.555,-34.180,-11.719,-50.293,0.000,0
1644802673.428,-137.207,-39.551,-13.672,-75.684,0.000,0
1644802673.432,-122.070,-14.648,-18.555,-71.289,0.000,0
1644802673.435,-115.723,6.348,-20.020,-49.805,0.000,0
1644802673.439,-113.281,0.977,-18.066,-33.203,0.000,0
1644802673.443,-125.000,-36.621,-21.973,-45.898,0.000,0
1644802673.447,-131.836,-56.152,-24.902,-72.266,0.000,0
1644802673.451,-131.348,-14.160,-26.367,-73.242,0.000,0
1644802673.454,-133.301,2.930,-32.227,-50.781,0.000,0
1644802673.458,-137.695,-16.602,-28.320,-43.457,0.000,0
1644802673.462,-143.066,-39.062,-25.391,-63.965,0.000,0
1644802673.466,-151.855,-46.387,-26.367,-80.078,0.000,0
1644802673.470,-152.344,-22.949,-26.367,-73.242,0.000,0
1644802673.474,-134.277,-20.996,-27.344,-42.969,0.000,0
1644802673.478,-129.395,-37.598,-27.832,-38.086,0.000,0
1644802673.481,-154.785,-41.504,-23.438,-59.570,0.000,0
1644802673.485,-162.598,-47.363,-19.043,-73.242,0.000,0
1644802673.489,-140.625,-31.250,-22.461,-73.730,0.000,0
1644802673.492,-130.371,-10.254,-20.996,-48.340,0.000,0
1644802673.496,-131.836,-16.602,-20.508,-41.504,0.000,0
1644802673.500,-140.625,-49.805,-22.949,-56.152,0.000,0
1644802673.504,-142.578,-62.988,-14.648,-69.824,0.000,0
1644802673.508,-126.953,-34.180,-11.719,-64.453,0.000,0
1644802673.512,-117.676,-20.020,-12.695,-54.688,0.000,0
1644802673.515,-124.023,-22.949,-12.207,-49.316,0.000,0
1644802673.519,-133.789,-36.621,-12.207,-41.016,0.000,0
1644802673.523,-145.508,-43.945,-17.090,-78.613,0.000,0
1644802673.527,-137.695,-23.926,-20.996,-96.680,0.000,0
1644802673.531,-117.676,-13.184,-17.090,-67.871,0.000,0
1644802673.535,-120.117,-23.926,-15.625,-48.340,0.000,0
1644802673.538,-146.484,-24.414,-19.531,-57.129,0.000,0
1644802673.542,-166.992,-32.715,-21.484,-89.844,0.000,0
1644802673.546,-146.973,-31.738,-22.461,-97.656,0.000,0
1644802673.550,-122.559,-13.672,-16.602,-67.383,0.000,0
1644802673.554,-127.441,-5.371,-14.648,-46.875,0.000,0
1644802673.558,-139.160,-23.926,-21.973,-49.316,0.000,0
1644802673.561,-145.020,-55.176,-18.066,-57.617,0.000,0
1644802673.565,-143.555,-41.992,-17.090,-68.359,0.000,0
1644802673.569,-138.672,-2.930,-26.855,-65.430,0.000,0
1644802673.573,-129.883,3.906,-23.926,-48.340,0.000,0
1644802673.577,-128.418,-10.254,-19.043,-53.223,0.000,0
1644802673.581,-145.508,-33.203,-20.996,-74.219,0.000,0
1644802673.584,-141.113,-28.809,-20.020,-85.449,0.000,0
1644802673.588,-122.559,-14.160,-19.043,-59.082,0.000,0
1644802673.591,-118.164,-15.625,-18.066,-28.320,0.000,0
1644802673.595,-134.277,-22.461,-15.137,-34.668,0.000,0
1644802673.599,-148.926,-39.062,-13.184,-56.641,0.000,0
1644802673.603,-146.973,-41.016,-16.113,-67.871,0.000,0
1644802673.607,-137.695,-20.508,-20.020,-58.105,0.000,0
1644802673.611,-131.836,-1.465,-22.461,-45.898,0.000,0
1644802673.615,-134.766,-0.488,-20.020,-36.621,0.000,0
1644802673.619,-141.113,-33.691,-17.090,-38.086,0.000,0
1644802673.622,-150.879,-50.293,-14.648,-64.941,0.000,0
1644802673.626,-148.926,-11.719,-17.090,-71.777,0.000,0
1644802673.630,-135.254,4.883,-20.020,-48.340,0.000,0
1644802673.634,-135.254,-16.602,-20.996,-35.645,0.000,0
1644802673.637,-147.461,-41.504,-22.949,-58.594,0.000,0
1644802673.641,-152.344,-41.016,-19.531,-86.914,0.000,0
1644802673.645,-136.230,-21.484,-19.043,-72.754,0.000,0
1644802673.649,-119.141,-20.020,-21.973,-34.668,0.000,0
1644802673.653,-132.324,-25.391,-27.344,-32.227,0.000,0
1644802673.657,-154.785,-39.062,-31.250,-56.152,0.000,0
1644802673.661,-165.527,-48.340,-30.273,-71.777,0.000,0
1644802673.665,-153.320,-38.086,-25.391,-59.570,0.000,0
1644802673.668,-132.324,-16.602,-22.461,-42.969,0.000,0
1644802673.672,-137.695,-7.812,-25.391,-42.969,0.000,0
1644802673.676,-145.996,-37.598,-18.555,-42.969,0.000,0
1644802673.680,-141.602,-54.199,-16.602,-48.828,0.000,0
1644802673.683,-134.766,-20.996,-25.391,-57.617,0.000,0
1644802673.687,-122.559,3.418,-28.809,-49.316,0.000,0
1644802673.691,-120.605,0.000,-29.297,-30.762,0.000,0
1644802673.695,-133.789,-17.090,-29.785,-41.992,0.000,0
1644802673.699,-138.672,-37.598,-31.738,-69.824,0.000,0
1644802673.703,-133.789,-19.531,-32.227,-65.430,0.000,0
1644802673.707,-125.977,9.766,-30.762,-46.875,0.000,0
1644802673.710,-115.234,-0.488,-30.273,-37.598,0.000,0
1644802673.714,-125.977,-8.301,-35.156,-41.504,0.000,0
1644802673.718,-139.160,-12.207,-36.621,-68.359,0.000,0
1644802673.722,-130.371,-7.324,-35.156,-92.285,0.000,0
1644802673.726,-114.746,18.066,-33.691,-73.730,0.000,0
1644802673.730,-111.816,26.855,-31.250,-43.945,0.000,0
1644802673.734,-119.141,9.766,-34.180,-42.969,0.000,0
1644802673.738,-132.812,-18.555,-36.133,-58.594,0.000,0
1644802673.741,-125.488,-16.602,-30.273,-79.590,0.000,0
1644802673.745,-104.980,16.113,-28.809,-74.219,0.000,0
1644802673.749,-112.793,29.297,-31.250,-58.105,0.000,0
1644802673.753,-126.953,-1.465,-31.738,-44.434,0.000,0
1644802673.757,-144.043,-30.273,-36.133,-52.246,0.000,0
1644802673.761,-145.020,-8.301,-36.133,-74.707,0.000,0
1644802673.765,-111.816,10.742,-31.738,-54.199,0.000,0
1644802673.768,-104.492,12.695,-34.180,-28.809,0.000,0
1644802673.772,-123.535,8.789,-30.273,-41.016,0.000,0
1644802673.776,-141.602,-14.160,-21.484,-53.711,0.000,0
1644802673.780,-144.043,-16.602,-23.438,-57.129,0.000,0
1644802673.783,-121.094,7.324,-24.414,-54.199,0.000,0
1644802673.787,-104.980,17.578,-19.531,-35.645,0.000,0
1644802673.791,-115.234,9.766,-17.090,-34.668,0.000,0
1644802673.795,-133.789,-16.113,-19.531,-51.270,0.000,0
1644802673.799,-138.672,-26.855,-25.391,-70.312,0.000,0
1644802673.803,-131.348,4.395,-21.973,-63.477,0.000,0
1644802673.807,-131.348,20.996,-13.672,-32.715,0.000,0
1644802673.810,-132.324,-1.953,-15.625,-19.043,0.000,0
1644802673.814,-145.996,-32.227,-15.137,-27.344,0.000,0
1644802673.818,-154.785,-20.508,-18.066,-58.594,0.000,0
1644802673.822,-134.766,3.418,-16.602,-67.383,0.000,0
1644802673.826,-127.930,8.789,-16.113,-41.504,0.000,0
1644802673.830,-138.184,8.301,-19.043,-25.391,0.000,0
1644802673.834,-147.949,-15.137,-11.230,-29.785,0.000,0
1644802673.837,-145.508,-29.297,-8.301,-53.223,0.000,0
1644802673.841,-129.395,-19.043,-8.301,-54.688,0.000,0
1644802673.845,-119.141,-5.859,-11.719,-37.109,0.000,0
1644802673.849,-123.047,12.207,-14.160,-35.645,0.000,0
1644802673.853,-143.555,-10.742,-13.672,-50.293,0.000,0
1644802673.857,-155.762,-34.180,-18.555,-72.266,0.000,0
1644802673.860,-143.066,-15.137,-18.555,-67.871,0.000,0
1644802673.864,-137.207,-0.977,-21.973,-55.664,0.000,0
1644802673.868,-133.301,-4.883,-24.902,-48.340,0.000,0
1644802673.872,-144.531,-25.879,-20.996,-51.758,0.000,0
1644802673.875,-155.273,-40.039,-22.461,-75.684,0.000,0
1644802673.879,-132.324,-20.508,-20.508,-78.613,0.000,0
1644802673.883,-120.605,-4.883,-22.461,-52.734,0.000,0
1644802673.887,-120.605,-10.742,-26.855,-28.809,0.000,0
1644802673.891,-133.789,-20.020,-27.832,-31.250,0.000,0
1644802673.895,-155.762,-36.621,-27.832,-58.594,0.000,0
1644802673.899,-138.672,-36.133,-22.461,-67.383,0.000,0
1644802673.903,-114.746,-17.578,-17.578,-51.270,0.000,0
1644802673.906,-128.418,-3.906,-21.973,-50.293,0.000,0
1644802673.910,-144.531,-12.695,-21.484,-48.340,0.000,0
1644802673.914,-152.344,-43.945,-16.602,-53.711,0.000,0
1644802673.918,-151.367,-39.062,-23.438,-72.266,0.000,0
1644802673.922,-132.812,-7.324,-24.902,-59.082,0.000,0
1644802673.926,-131.348,-5.859,-22.461,-32.715,0.000,0
1644802673.929,-140.137,-31.738,-23.926,-21.973,0.000,0
1644802673.933,-151.367,-56.152,-25.391,-42.969,0.000,0
1644802673.937,-160.156,-34.668,-27.344,-66.895,0.000,0
1644802673.941,-138.184,-6.348,-24.902,-56.641,0.000,0
1644802673.945,-126.953,0.977,-21.484,-44.434,0.000,0
1644802673.949,-138.672,-6.836,-20.508,-42.480,0.000,0
1644802673.952,-150.879,-27.344,-19.531,-57.129,0.000,0
1644802673.956,-149.414,-28.809,-18.555,-67.871,0.000,0
1644802673.960,-133.789,-7.812,-16.113,-52.246,0.000,0
1644802673.964,-118.164,3.906,-14.648,-29.785,0.000,0
1644802673.967,-117.676,-1.953,-8.301,-21.973,0.000,0
1644802673.971,-144.531,-35.645,-7.324,-47.363,0.000,0
1644802673.975,-159.668,-45.410,-11.719,-86.914,0.000,0
1644802673.979,-145.996,-18.066,-13.672,-82.520,0.000,0
1644802673.983,-138.184,0.000,-16.602,-58.594,0.000,0
1644802673.987,-139.648,-16.602,-12.695,-51.270,0.000,0
1644802673.991,-153.809,-56.641,-12.207,-62.500,0.000,0
1644802673.994,-175.293,-58.105,-16.602,-90.332,0.000,0
1644802673.998,-166.016,-32.715,-14.160,-93.750,0.000,0
1644802674.002,-152.832,-23.926,-12.695,-69.336,0.000,0
1644802674.006,-155.762,-21.484,-17.578,-62.012,0.000,0
1644802674.010,-171.387,-36.621,-25.391,-77.637,0.000,0
1644802674.014,-186.523,-56.641,-28.809,-94.238,0.000,0
1644802674.017,-168.457,-44.922,-21.973,-87.891,0.000,0
1644802674.021,-157.227,-23.926,-20.508,-62.988,0.000,0
1644802674.025,-166.016,-13.672,-19.043,-50.781,0.000,0
1644802674.029,-166.992,-38.086,-14.160,-56.152,0.000,0
1644802674.033,-165.039,-60.059,-16.113,-84.473,0.000,0
1644802674.037,-150.391,-33.203,-18.555,-82.031,0.000,0
1644802674.041,-136.230,-4.883,-17.090,-61.523,0.000,0
1644802674.045,-135.742,-8.789,-19.043,-43.945,0.000,0
1644802674.049,-156.250,-31.738,-22.461,-47.852,0.000,0
1644802674.053,-169.922,-52.246,-23.926,-75.195,0.000,0
1644802674.057,-160.645,-33.691,-25.391,-74.707,0.000,0
1644802674.061,-146.484,-6.348,-25.391,-65.430,0.000,0
1644802674.064,-126.465,-9.766,-22.949,-52.246,0.000,0
1644802674.068,-137.207,-24.414,-22.461,-52.734,0.000,0
1644802674.072,-164.551,-41.504,-20.020,-69.824,0.000,0
1644802674.076,-154.785,-29.297,-19.531,-71.777,0.000,0
1644802674.080,-136.719,-9.766,-20.508,-47.852,0.000,0
1644802674.084,-145.020,2.930,-24.902,-30.273,0.000,0
1644802674.088,-152.344,-4.395,-26.367,-39.062,0.000,0
1644802674.091,-155.762,-40.527,-22.949,-73.730,0.000,0
1644802674.095,-155.273,-30.762,-22.461,-100.586,0.000,0
1644802674.099,-142.578,4.883,-19.531,-77.637,0.000,0
1644802674.103,-141.113,5.371,-15.625,-40.527,0.000,0
1644802674.107,-146.484,-15.625,-16.602,-29.785,0.000,0
1644802674.111,-149.902,-42.969,-19.043,-48.340,0.000,0
1644802674.114,-145.020,-34.180,-21.973,-75.684,0.000,0
1644802674.118,-137.207,-1.953,-19.043,-68.359,0.000,0
1644802674.122,-131.836,2.441,-13.184,-37.109,0.000,0
1644802674.126,-140.137,-10.254,-17.090,-33.691,0.000,0
1644802674.130,-164.062,-29.297,-22.461,-63.477,0.000,0
1644802674.134,-162.109,-30.762,-22.461,-84.961,0.000,0
1644802674.137,-143.066,-11.719,-18.066,-68.359,0.000,0
1644802674.141,-134.766,3.906,-14.160,-45.410,0.000,0
1644802674.145,-128.906,4.883,-13.672,-41.016,0.000,0
1644802674.149,-125.977,-22.949,-19.043,-37.109,0.000,0
1644802674.153,-125.488,-43.457,-14.648,-39.062,0.000,0
1644802674.157,-126.953,-21.973,-10.742,-58.594,0.000,0
1644802674.161,-135.254,-1.953,-12.207,-63.477,0.000,0
1644802674.164,-145.996,-4.883,-10.742,-56.152,0.000,0
1644802674.168,-154.785,-43.945,-8.789,-61.523,0.000,0
1644802674.172,-165.039,-53.223,-13.672,-83.008,0.000,0
1644802674.176,-162.598,-3.418,-18.555,-99.121,0.000,0
1644802674.180,-144.531,7.812,-14.648,-74.707,0.000,0
1644802674.183,-147.461,-7.324,-15.625,-56.641,0.000,0
1644802674.187,-156.738,-16.602,-12.695,-66.406,0.000,0
1644802674.191,-163.574,-28.809,-15.137,-82.031,0.000,0
1644802674.195,-139.648,-21.973,-17.090,-77.148,0.000,0
1644802674.199,-119.141,-5.371,-12.695,-45.898,0.000,0
1644802674.203,-141.602,0.000,-15.625,-34.180,0.000,0
1644802674.207,-158.203,-19.043,-17.090,-55.664,0.000,0
1644802674.210,-156.738,-50.293,-13.672,-75.684,0.000,0
1644802674.214,-138.184,-29.785,-12.695,-76.172,0.000,0
1644802674.218,-133.789,15.625,-12.695,-68.359,0.000,0
1644802674.222,-144.043,9.277,-16.113,-48.828,0.000,0
1644802674.226,-150.879,-13.672,-19.043,-51.758,0.000,0
1644802674.229,-159.180,-33.691,-17.090,-75.684,0.000,0
1644802674.233,-151.367,-18.555,-15.625,-77.148,0.000,0
1644802674.237,-127.441,9.766,-10.254,-52.246,0.000,0
1644802674.241,-123.535,7.324,-11.719,-37.598,0.000,0
1644802674.245,-138.672,-8.789,-16.113,-40.039,0.000,0
1644802674.249,-149.414,-36.621,-18.555,-58.594,0.000,0
1644802674.253,-149.902,-34.180,-20.996,-84.473,0.000,0
1644802674.256,-137.695,-13.184,-20.996,-57.617,0.000,0
1644802674.260,-134.277,2.441,-18.555,-34.180,0.000,0
1644802674.264,-139.648,0.000,-17.578,-48.340,0.000,0
1644802674.268,-155.762,-34.180,-18.555,-54.199,0.000,0
1644802674.272,-159.180,-30.762,-17.578,-63.965,0.000,0
1644802674.276,-134.766,4.883,-17.090,-57.617,0.000,1
1644802674.280,-129.883,11.719,-17.578,-41.016,0.000,0
1644802674.283,-145.020,-7.812,-20.508,-28.320,0.000,0
1644802674.287,-158.691,-32.227,-22.461,-44.922,0.000,0
1644802674.291,-153.809,-32.227,-23.926,-88.379,0.000,0
1644802674.295,-134.277,-9.277,-20.996,-61.523,0.000,0
1644802674.299,-124.023,-3.906,-10.254,-18.066,0.000,0
1644802674.303,-126.465,-11.230,-4.883,-17.090,0.000,0
1644802674.307,-155.273,-20.996,-18.555,-48.828,0.000,0
1644802674.311,-159.668,-29.297,-23.926,-80.566,0.000,0
1644802674.314,-141.602,-11.230,-18.555,-67.383,0.000,0
1644802674.318,-144.531,0.977,-18.555,-47.852,0.000,0
1644802674.322,-145.996,-3.906,-19.043,-48.828,0.000,0
1644802674.326,-152.832,-30.762,-14.648,-59.082,0.000,0
1644802674.329,-162.109,-48.340,-16.113,-77.148,0.000,0
1644802674.333,-146.973,-22.461,-16.602,-69.336,0.000,0
1644802674.337,-137.695,-6.348,-12.207,-50.781,0.000,0
1644802674.341,-142.578,-15.137,-12.207,-41.992,0.000,0
1644802674.345,-155.273,-31.738,-11.230,-41.992,0.000,0
1644802674.349,-154.297,-37.598,-8.301,-52.246,0.000,0
1644802674.353,-132.812,-11.719,-7.324,-51.270,0.000,0
1644802674.356,-126.465,3.906,-10.742,-43.457,0.000,0
1644802674.360,-128.418,-10.742,-11.230,-35.645,0.000,0
1644802674.364,-153.320,-25.879,-15.137,-52.734,0.000,0
1644802674.368,-167.969,-37.109,-19.531,-83.496,0.000,0
1644802674.372,-151.855,-23.926,-21.973,-79.590,0.000,0
1644802674.376,-129.883,-0.977,-23.438,-54.688,0.000,0
1644802674.380,-124.023,2.930,-25.879,-57.617,0.000,0
1644802674.383,-148.926,-19.531,-25.391,-62.988,0.000,0
1644802674.387,-163.086,-57.129,-25.879,-61.523,0.000,0
1644802674.391,-139.648,-43.945,-27.344,-64.453,0.000,0
1644802674.395,-126.465,-2.441,-30.273,-47.852,0.000,0
1644802674.399,-130.859,-5.859,-32.227,-36.621,0.000,0
1644802674.403,-139.648,-29.785,-27.344,-42.480,0.000,0
1644802674.407,-152.832,-45.410,-26.367,-59.082,0.000,0
1644802674.410,-145.996,-30.273,-26.855,-78.613,0.000,0
1644802674.414,-125.977,-10.742,-20.020,-54.199,0.000,0
1644802674.418,-126.953,-13.184,-21.973,-30.762,0.000,0
1644802674.422,-144.043,-27.344,-24.902,-41.504,0.000,0
1644802674.426,-153.809,-46.387,-25.879,-70.312,0.000,0
1644802674.430,-139.160,-36.621,-21.973,-71.289,0.000,0
1644802674.434,-111.816,-13.672,-20.020,-46.387,0.000,0
1644802674.437,-110.352,-11.230,-23.926,-34.668,0.000,0
1644802674.441,-132.324,-22.461,-21.484,-28.320,0.000,0
1644802674.445,-146.973,-48.340,-18.555,-43.945,0.000,0
1644802674.449,-135.742,-57.129,-21.484,-57.617,0.000,0
1644802674.453,-122.070,-19.531,-22.461,-50.293,0.000,0
1644802674.457,-112.305,-4.883,-22.461,-33.691,0.000,0
1644802674.461,-107.910,-26.855,-25.879,-23.438,0.000,0
1644802674.464,-130.859,-42.969,-20.996,-34.668,0.000,0
1644802674.468,-140.625,-35.156,-17.090,-60.059,0.000,0
1644802674.472,-116.211,-12.695,-15.137,-59.082,0.000,0
1644802674.476,-102.539,-5.371,-9.766,-26.367,0.000,0
1644802674.480,-101.562,-15.625,-6.348,-9.277,0.000,0
1644802674.484,-115.723,-43.457,-7.324,-26.367,0.000,0
1644802674.488,-118.652,-38.086,-9.277,-62.500,0.000,0
1644802674.491,-93.262,-17.090,-10.742,-55.176,0.000,0
1644802674.495,-96.191,-11.230,-6.348,-22.949,0.000,0
1644802674.499,-117.188,0.000,-6.348,-37.109,0.000,0
1644802674.503,-124.023,-27.344,-7.812,-53.223,0.000,0
1644802674.507,-125.488,-43.457,-7.324,-60.059,0.000,0
1644802674.511,-125.000,-15.625,-10.254,-62.500,0.000,0
1644802674.514,-118.652,1.465,-14.160,-45.898,0.000,0
1644802674.518,-116.211,-9.277,-13.672,-26.855,0.000,0
1644802674.522,-143.066,-32.227,-13.672,-34.180,0.000,0
1644802674.526,-144.531,-43.945,-17.090,-54.199,0.000,0
1644802674.530,-120.605,-19.043,-13.672,-51.270,0.000,0
1644802674.534,-104.004,3.906,-8.301,-27.344,0.000,0
1644802674.538,-101.074,-5.371,-8.789,-16.113,0.000,0
1644802674.541,-125.000,-15.137,-5.371,-33.203,0.000,0
1644802674.545,-136.230,-24.902,-9.277,-53.711,0.000,0
1644802674.549,-112.793,-21.973,-12.207,-41.992,0.000,0
1644802674.553,-107.910,-2.441,-4.395,-33.691,0.000,0
1644802674.557,-138.672,0.977,-8.301,-49.316,0.000,0
1644802674.561,-154.297,-21.484,-11.230,-56.152,0.000,0
1644802674.564,-158.691,-52.734,-8.301,-76.172,0.000,0
1644802674.568,-148.438,-41.992,-11.719,-77.148,0.000,0
1644802674.572,-126.465,-15.137,-9.277,-53.711,0.000,0
1644802674.576,-132.812,-14.648,-12.207,-49.805,0.000,0
1644802674.580,-149.414,-41.504,-15.625,-54.688,0.000,0
1644802674.584,-163.574,-62.988,-14.160,-75.195,0.000,0
1644802674.588,-165.039,-33.691,-20.020,-87.891,0.000,0
1644802674.592,-148.926,-13.672,-23.438,-68.359,0.000,0
1644802674.595,-147.949,-18.555,-21.484,-43.457,0.000,0
1644802674.600,-154.297,-30.273,-18.066,-35.645,0.000,0
1644802674.604,-159.180,-49.316,-20.020,-68.848,0.000,0
1644802674.608,-145.020,-38.574,-19.531,-89.355,0.000,0
1644802674.611,-124.023,-15.137,-15.137,-65.430,0.000,0
1644802674.615,-119.629,-9.277,-14.648,-47.363,0.000,0
1644802674.619,-128.906,-22.461,-18.555,-50.781,0.000,0
1644802674.623,-149.414,-48.340,-20.020,-63.477,0.000,0
1644802674.627,-148.926,-49.805,-14.648,-76.172,0.000,0
1644802674.631,-140.625,-12.695,-10.254,-74.219,0.000,0
1644802674.635,-141.602,0.000,-8.789,-59.570,0.000,0
1644802674.638,-135.254,-25.391,-3.906,-54.199,0.000,0
1644802674.642,-156.250,-54.688,-5.371,-70.801,0.000,0
1644802674.646,-171.875,-47.852,-11.230,-93.750,0.000,0
1644802674.650,-146.484,-15.625,-9.277,-82.031,0.000,0
1644802674.654,-132.324,-9.766,-7.324,-47.363,0.000,0
1644802674.658,-150.391,-20.020,-11.230,-42.969,0.000,0
1644802674.661,-172.852,-34.668,-13.672,-65.918,0.000,0
1644802674.665,-166.992,-45.898,-15.625,-83.496,0.000,0
1644802674.669,-150.879,-30.762,-13.672,-76.172,0.000,0
1644802674.673,-141.602,-8.789,-15.137,-58.594,0.000,0
1644802674.677,-145.996,-6.348,-14.648,-50.781,0.000,0
1644802674.681,-166.504,-33.691,-16.113,-63.477,0.000,0
1644802674.685,-175.781,-49.805,-17.090,-87.891,0.000,0
1644802674.688,-168.945,-27.344,-13.672,-87.891,0.000,0
1644802674.692,-158.691,-10.742,-9.766,-80.078,0.000,0
1644802674.696,-160.156,-9.766,-5.859,-66.895,0.000,0
1644802674.700,-158.203,-47.363,-8.301,-61.035,0.000,0
1644802674.704,-146.484,-64.941,-15.137,-82.031,0.000,0
1644802674.707,-140.625,-20.508,-19.043,-85.938,0.000,0
1644802674.711,-143.066,-3.906,-14.160,-55.664,0.000,0
1644802674.715,-145.020,-20.020,-11.230,-41.504,0.000,0
1644802674.719,-156.738,-37.109,-13.672,-60.547,0.000,0
1644802674.723,-160.645,-35.645,-19.043,-92.285,0.000,0
1644802674.727,-138.672,-23.926,-20.508,-94.238,0.000,0
1644802674.731,-127.930,-5.859,-11.719,-68.848,0.000,0
1644802674.734,-129.395,5.859,-10.742,-53.223,0.000,0
1644802674.738,-144.531,-17.090,-10.742,-51.270,0.000,0
1644802674.742,-156.738,-46.875,-6.836,-65.430,0.000,0
1644802674.746,-134.277,-30.762,-6.348,-72.754,0.000,0
1644802674.750,-125.000,-6.836,-5.371,-53.223,0.000,0
1644802674.754,-140.137,-4.395,-3.906,-40.039,0.000,0
1644802674.757,-142.090,-28.320,-0.977,-33.691,0.000,0
1644802674.761,-162.598,-56.641,-6.348,-57.617,0.000,0
1644802674.765,-164.551,-34.180,-12.695,-83.984,0.000,0
1644802674.769,-127.441,-8.301,-10.742,-63.477,0.000,0
1644802674.773,-111.328,-5.859,-9.277,-35.156,0.000,0
1644802674.777,-125.977,-14.160,-10.742,-39.062,0.000,0
1644802674.781,-145.996,-35.156,-7.812,-65.918,0.000,0
1644802674.785,-132.812,-33.691,-8.301,-74.707,0.000,0
1644802674.789,-115.234,-14.160,-9.766,-52.246,0.000,0
1644802674.793,-126.953,-3.418,-8.301,-38.574,0.000,0
1644802674.797,-140.137,-10.742,-14.648,-50.781,0.000,0
1644802674.801,-145.020,-40.039,-19.043,-77.148,0.000,0
1644802674.804,-144.043,-48.828,-15.625,-83.984,0.000,0
1644802674.808,-131.836,-17.090,-17.090,-72.754,0.000,0
1644802674.812,-128.906,3.418,-21.484,-62.012,0.000,0
1644802674.816,-135.742,-11.230,-16.113,-57.129,0.000,0
1644802674.820,-147.461,-39.551,-12.207,-62.988,0.000,0
1644802674.824,-151.367,-39.551,-13.184,-68.848,0.000,0
1644802674.828,-135.254,-14.160,-16.602,-70.312,0.000,0
1644802674.832,-124.023,-5.859,-16.113,-49.805,0.000,0
1644802674.835,-126.953,-16.602,-12.695,-31.738,0.000,0
1644802674.839,-141.113,-38.574,-17.090,-52.734,0.000,0
1644802674.843,-153.809,-45.898,-15.625,-73.730,0.000,0
1644802674.847,-154.297,-29.297,-13.672,-62.500,0.000,0
1644802674.851,-145.996,-21.484,-13.184,-40.527,0.000,0
1644802674.855,-150.391,-17.578,-9.766,-42.480,0.000,0
1644802674.859,-168.945,-28.809,-9.277,-59.082,0.000,0
1644802674.862,-159.668,-61.523,-9.766,-64.941,0.000,0
1644802674.866,-144.531,-49.805,-14.648,-63.965,0.000,0
1644802674.870,-140.625,-10.254,-18.066,-60.059,0.000,0
1644802674.874,-139.648,-7.324,-16.602,-49.316,0.000,0
1644802674.878,-152.344,-40.039,-13.672,-45.898,0.000,0
1644802674.882,-159.180,-56.641,-12.695,-65.430,0.000,0
1644802674.886,-152.832,-27.832,-18.066,-76.660,0.000,0
1644802674.889,-142.578,-9.277,-17.578,-53.711,0.000,0
1644802674.893,-139.160,-25.879,-15.625,-38.574,0.000,0
1644802674.897,-162.109,-41.016,-20.996,-51.758,0.000,0
1644802674.901,-179.199,-46.387,-21.484,-73.730,0.000,0
1644802674.905,-161.133,-31.738,-15.625,-81.055,0.000,0
1644802674.909,-132.812,-23.926,-13.672,-43.945,0.000,0
1644802674.913,-127.930,-11.230,-10.742,-23.926,0.000,0
1644802674.917,-152.344,-4.883,-12.695,-51.758,0.000,0
1644802674.920,-160.645,-41.504,-19.531,-76.660,0.000,0
1644802674.924,-134.277,-40.527,-13.672,-65.918,0.000,0
1644802674.928,-132.812,-0.488,-10.742,-51.270,0.000,0
1644802674.932,-137.207,7.324,-9.766,-35.645,0.000,0
1644802674.936,-137.695,-12.695,-4.883,-21.484,0.000,0
1644802674.940,-153.320,-39.062,-6.836,-47.852,0.000,0
1644802674.943,-149.902,-39.062,-9.766,-75.195,0.000,0
1644802674.947,-138.672,-17.090,-14.160,-62.500,0.000,0
1644802674.951,-132.324,-18.555,-15.625,-36.621,0.000,0
1644802674.955,-131.348,-24.902,-14.160,-25.879,0.000,0
1644802674.959,-154.785,-30.273,-13.184,-52.246,0.000,0
1644802674.963,-158.691,-30.762,-12.695,-76.172,0.000,0
1644802674.967,-131.348,-7.812,-15.625,-65.918,0.000,0
1644802674.970,-125.488,4.883,-16.113,-51.270,0.000,0
1644802674.974,-144.043,-0.977,-13.672,-50.293,0.000,0
1644802674.978,-161.621,-34.180,-8.301,-59.082,0.000,0
1644802674.982,-159.668,-45.898,-13.184,-72.754,0.000,0
1644802674.986,-144.043,-14.648,-20.508,-62.988,0.000,0
1644802674.990,-142.090,-5.859,-14.648,-33.203,0.000,0
1644802674.994,-147.461,-16.602,-9.277,-31.738,0.000,0
1644802674.997,-160.645,-47.852,-11.719,-47.852,0.000,0
1644802675.001,-168.945,-44.434,-13.184,-71.777,0.000,0
1644802675.005,-154.297,-11.719,-16.113,-77.148,0.000,0
1644802675.009,-137.695,-13.184,-14.160,-61.035,0.000,0
1644802675.013,-138.672,-18.555,-11.719,-50.781,0.000,0
1644802675.017,-159.180,-37.109,-12.695,-58.105,0.000,0
1644802675.021,-154.297,-46.387,-8.789,-80.566,0.000,0
1644802675.024,-122.070,-29.297,-12.695,-74.219,0.000,0
1644802675.028,-115.723,-13.184,-15.625,-33.691,0.000,0
1644802675.032,-126.953,-9.277,-16.113,-35.645,0.000,0
1644802675.036,-143.555,-38.574,-22.461,-60.059,0.000,0
1644802675.040,-148.926,-67.383,-22.949,-76.660,0.000,0
1644802675.044,-132.324,-48.340,-24.414,-67.871,0.000,0
1644802675.048,-135.254,-3.418,-24.902,-40.527,0.000,0
1644802675.051,-131.836,-3.418,-17.578,-38.086,0.000,0
1644802675.055,-139.648,-37.109,-20.020,-59.082,0.000,0
1644802675.059,-152.344,-52.246,-21.973,-90.820,0.000,0
1644802675.063,-136.230,-28.320,-21.973,-95.215,0.000,0
1644802675.067,-131.348,-7.324,-22.949,-62.012,0.000,0
1644802675.071,-138.184,-16.113,-20.996,-43.457,0.000,0
1644802675.074,-137.695,-29.297,-17.578,-50.293,0.000,0
1644802675.078,-153.320,-40.527,-16.113,-71.289,0.000,0
1644802675.082,-151.367,-31.738,-13.672,-77.637,0.000,0
1644802675.086,-129.883,-26.855,-12.207,-56.152,0.000,0
1644802675.090,-134.277,-19.043,-15.625,-44.922,0.000,0
1644802675.094,-148.438,-15.625,-18.555,-58.594,0.000,0
1644802675.098,-152.832,-45.898,-16.113,-68.359,0.000,0
1644802675.101,-151.855,-38.574,-16.113,-75.684,0.000,0
1644802675.105,-133.301,2.441,-13.184,-68.848,0.000,0
1644802675.109,-119.141,9.766,-7.812,-45.410,0.000,0
1644802675.113,-128.906,-20.020,-8.789,-43.457,0.000,0
1644802675.117,-149.414,-45.410,-11.719,-61.523,0.000,0
1644802675.121,-161.621,-33.203,-19.531,-73.730,0.000,0
1644802675.124,-129.883,-8.301,-21.973,-62.988,0.000,0
1644802675.128,-114.746,-17.090,-22.949,-43.457,0.000,0
1644802675.132,-132.812,-34.668,-27.344,-43.945,0.000,0
1644802675.136,-146.484,-38.574,-22.461,-58.594,0.000,0
1644802675.140,-145.996,-38.086,-18.066,-72.266,0.000,0
1644802675.144,-129.883,-23.926,-19.531,-56.152,0.000,0
1644802675.148,-120.605,-7.812,-16.113,-40.527,0.000,0
1644802675.151,-137.207,-13.184,-12.207,-45.898,0.000,0
1644802675.156,-160.645,-40.527,-13.184,-60.547,0.000,0
1644802675.160,-153.320,-51.270,-14.648,-82.031,0.000,0
1644802675.163,-138.672,-17.578,-16.113,-72.754,0.000,0
1644802675.167,-131.348,8.789,-14.160,-48.340,0.000,0
1644802675.171,-129.395,-9.766,-12.695,-44.434,0.000,0
1644802675.175,-131.836,-41.992,-15.625,-61.523,0.000,0
1644802675.179,-135.254,-44.434,-18.555,-76.172,0.000,0
1644802675.183,-143.066,-14.160,-18.066,-76.172,0.000,1
1644802675.187,-140.137,-0.488,-19.531,-52.734,0.000,0
1644802675.191,-132.324,-15.625,-23.926,-42.969,0.000,0
1644802675.194,-147.461,-31.250,-20.508,-64.941,0.000,0
1644802675.198,-165.039,-35.645,-17.090,-92.285,0.000,0
1644802675.202,-135.742,-24.902,-15.625,-85.938,0.000,0
1644802675.206,-121.094,-15.137,-15.137,-62.012,0.000,0
1644802675.210,-143.555,-8.301,-14.648,-50.293,0.000,0
1644802675.214,-153.809,-34.668,-17.090,-50.781,0.000,0
1644802675.218,-159.668,-56.641,-19.043,-74.707,0.000,0
1644802675.222,-146.484,-32.227,-14.648,-82.520,0.000,0
1644802675.225,-134.277,-8.301,-8.301,-65.430,0.000,0
1644802675.229,-139.160,-1.953,-3.418,-41.016,0.000,0
1644802675.233,-139.648,-23.438,-1.953,-39.062,0.000,0
1644802675.237,-148.926,-41.016,-7.324,-66.406,0.000,0
1644802675.241,-139.160,-16.113,-12.695,-76.660,0.000,0
1644802675.245,-120.605,5.859,-9.277,-48.828,0.000,0
1644802675.249,-129.395,-4.883,-3.906,-15.137,0.000,0
1644802675.253,-150.879,-24.902,-6.348,-24.902,0.000,0
1644802675.257,-152.832,-36.621,-7.324,-59.570,0.000,0
1644802675.261,-133.301,-26.367,-5.371,-62.012,0.000,0
1644802675.265,-117.188,-14.160,-2.930,-44.922,0.000,0
1644802675.269,-118.164,-8.789,-6.836,-39.551,0.000,0
1644802675.272,-135.254,-17.090,-9.277,-43.457,0.000,0
1644802675.276,-145.996,-42.480,-10.742,-58.594,0.000,0
1644802675.280,-129.883,-42.480,-11.719,-68.848,0.000,0
1644802675.284,-117.188,-8.301,-13.184,-66.406,0.000,0
1644802675.288,-128.418,6.836,-17.090,-51.758,0.000,0
1644802675.292,-131.836,-16.113,-15.625,-40.039,0.000,0
1644802675.296,-139.160,-44.434,-11.230,-48.828,0.000,0
1644802675.300,-151.367,-29.297,-15.137,-70.801,0.000,0
1644802675.303,-135.742,-2.930,-17.090,-70.312,0.000,0
1644802675.307,-112.305,-1.953,-12.207,-50.781,0.000,0
1644802675.311,-117.676,-17.578,-13.184,-40.527,0.000,0
1644802675.315,-144.043,-41.016,-14.648,-55.176,0.000,0
1644802675.319,-143.555,-33.691,-16.602,-87.891,0.000,0
1644802675.323,-115.723,-16.113,-18.066,-65.918,0.000,0
1644802675.327,-110.840,-3.906,-16.113,-43.457,0.000,0
1644802675.330,-126.465,-6.348,-22.461,-59.570,0.000,0
1644802675.334,-143.066,-40.527,-27.344,-70.312,0.000,0
1644802675.338,-146.484,-54.199,-24.902,-80.566,0.000,0
1644802675.342,-141.602,-22.461,-20.508,-81.543,0.000,0
1644802675.346,-134.766,4.395,-16.602,-53.711,0.000,0
1644802675.350,-129.395,-3.906,-10.742,-37.109,0.000,0
1644802675.354,-149.902,-42.969,-4.395,-41.504,0.000,0
1644802675.357,-157.227,-52.734,-6.836,-58.105,0.000,0
1644802675.361,-135.742,-10.742,-7.812,-66.895,0.000,0
1644802675.365,-129.395,7.324,-5.371,-44.922,0.000,0
1644802675.369,-140.137,-8.789,-6.836,-35.156,0.000,0
1644802675.373,-153.320,-21.973,-9.277,-52.246,0.000,0
1644802675.377,-145.508,-21.973,-12.207,-78.125,0.000,0
1644802675.381,-133.301,-11.230,-5.859,-75.684,0.000,0
1644802675.384,-136.719,2.441,-1.953,-56.152,0.000,0
1644802675.388,-141.113,-0.977,-6.348,-44.922,0.000,0
1644802675.392,-145.508,-21.484,-10.742,-55.664,0.000,0
1644802675.396,-147.461,-36.133,-18.555,-82.031,0.000,0
1644802675.400,-144.043,-20.020,-21.484,-79.102,0.000,0
1644802675.404,-134.766,-1.953,-17.578,-50.293,0.000,0
1644802675.408,-128.906,-10.254,-17.090,-33.691,0.000,0
1644802675.412,-127.441,-39.062,-19.043,-39.062,0.000,0
1644802675.415,-144.531,-56.641,-20.996,-68.359,0.000,0
1644802675.419,-146.484,-26.855,-22.461,-78.613,0.000,0
1644802675.423,-124.023,-3.418,-22.461,-60.547,0.000,0
1644802675.427,-120.605,-16.113,-17.090,-30.273,0.000,0
1644802675.431,-141.113,-36.133,-18.066,-29.785,0.000,0
1644802675.435,-154.297,-46.387,-20.020,-83.496,0.000,0
1644802675.438,-144.531,-38.086,-16.113,-95.703,0.000,0
1644802675.442,-122.070,-23.438,-15.625,-64.453,0.000,0
1644802675.446,-121.094,-15.625,-11.719,-40.039,0.000,0
1644802675.450,-128.906,-23.926,-14.648,-35.645,0.000,0
1644802675.454,-132.324,-47.363,-16.602,-64.453,0.000,0
1644802675.458,-134.277,-51.758,-11.230,-64.453,0.000,0
1644802675.462,-124.512,-21.484,-17.090,-54.688,0.000,0
1644802675.466,-122.559,4.395,-20.020,-52.246,0.000,0
1644802675.469,-137.695,-15.137,-10.742,-37.109,0.000,0
1644802675.473,-160.645,-52.246,-14.160,-54.199,0.000,0
1644802675.477,-154.297,-43.945,-19.043,-73.730,0.000,0
1644802675.481,-130.859,-9.766,-18.066,-66.895,0.000,0
1644802675.485,-131.348,-11.230,-17.090,-46.875,0.000,0
1644802675.489,-147.461,-24.414,-13.672,-39.062,0.000,0
1644802675.493,-157.715,-41.016,-12.207,-60.547,0.000,0
1644802675.496,-145.020,-41.016,-8.301,-82.520,0.000,0
1644802675.500,-131.836,-29.297,-7.324,-68.359,0.000,0
1644802675.504,-126.465,-21.973,-9.766,-39.551,0.000,0
1644802675.508,-131.348,-11.719,-12.695,-56.152,0.000,0
1644802675.512,-154.297,-32.227,-13.184,-74.219,0.000,0
1644802675.516,-146.973,-47.363,-10.742,-82.031,0.000,0
1644802675.520,-126.465,-20.508,-17.578,-72.754,0.000,0
1644802675.523,-127.441,-0.488,-19.531,-48.340,0.000,0
1644802675.528,-137.695,-13.184,-13.184,-49.805,0.000,0
1644802675.532,-151.367,-43.457,-13.672,-60.547,0.000,0
1644802675.536,-154.297,-51.758,-17.090,-71.289,0.000,0
1644802675.539,-147.949,-27.344,-14.648,-75.684,0.000,0
1644802675.543,-143.555,-13.184,-10.254,-53.711,0.000,0
1644802675.547,-134.766,-34.180,-9.277,-22.949,0.000,0
1644802675.551,-151.367,-52.246,-9.277,-38.086,0.000,0
1644802675.555,-166.992,-45.410,-14.160,-78.613,0.000,0
1644802675.559,-149.902,-26.367,-15.137,-63.965,0.000,0
1644802675.563,-140.625,-14.160,-7.812,-39.551,0.000,0
1644802675.566,-146.973,-7.324,-9.277,-46.875,0.000,0
1644802675.570,-153.809,-21.973,-13.672,-57.617,0.000,0
1644802675.574,-147.949,-47.363,-10.254,-66.895,0.000,0
1644802675.578,-132.812,-30.762,-10.254,-64.941,0.000,0
1644802675.582,-122.559,-3.906,-9.277,-45.410,0.000,0
1644802675.586,-132.324,-4.395,-4.883,-26.367,0.000,0
1644802675.590,-138.184,-32.715,-1.953,-31.250,0.000,0
1644802675.594,-144.531,-56.152,-0.488,-45.410,0.000,0
1644802675.598,-153.809,-33.691,-1.465,-54.688,0.000,0
1644802675.601,-139.648,-7.324,-0.977,-51.270,0.000,0
1644802675.605,-129.395,-15.137,-3.418,-30.762,0.000,0
1644802675.609,-137.695,-27.344,-3.418,-31.250,0.000,0
1644802675.613,-156.250,-40.039,-4.883,-68.848,0.000,0
1644802675.617,-147.949,-28.320,-8.301,-80.566,0.000,0
1644802675.621,-125.977,-20.508,-4.395,-47.363,0.000,0
1644802675.625,-127.441,-20.020,-5.859,-33.691,0.000,0
1644802675.629,-150.391,-8.301,-9.766,-53.223,0.000,0
1644802675.633,-159.180,-33.691,-3.418,-55.664,0.000,0
1644802675.637,-134.277,-36.133,-3.418,-61.035,0.000,0
1644802675.640,-122.070,-8.301,-4.883,-60.059,0.000,0
1644802675.644,-129.883,0.000,-3.418,-45.410,0.000,0
1644802675.648,-139.648,-18.066,-2.441,-45.410,0.000,0
1644802675.652,-151.855,-48.828,-3.906,-49.316,0.000,0
1644802675.656,-156.250,-37.598,-9.766,-70.312,0.000,0
1644802675.660,-147.949,-6.348,-6.348,-71.289,0.000,0
1644802675.664,-133.789,-3.418,0.977,-35.645,0.000,0
1644802675.668,-138.672,-8.789,-1.953,-36.133,0.000,0
1644802675.671,-164.062,-27.344,-7.324,-77.148,0.000,0
1644802675.675,-168.457,-29.785,-5.371,-95.703,0.000,0
1644802675.679,-135.254,-10.254,-1.465,-63.965,0.000,0
1644802675.683,-132.812,-2.930,-6.348,-47.852,0.000,0
1644802675.687,-151.855,-7.324,-8.301,-55.664,0.000,0
1644802675.691,-166.992,-29.297,-3.418,-58.105,0.000,0
1644802675.695,-158.203,-45.410,-7.812,-74.707,0.000,0
1644802675.698,-134.766,-15.137,-9.766,-71.289,0.000,0
1644802675.702,-141.602,14.648,-5.859,-45.410,0.000,0
1644802675.706,-146.973,3.418,-8.789,-32.227,0.000,0
1644802675.710,-145.996,-31.250,-8.301,-39.062,0.000,0
1644802675.715,-160.645,-43.457,-8.301,-64.941,0.000,0
1644802675.718,-158.203,-17.578,-16.113,-81.543,0.000,0
1644802675.722,-148.438,-2.930,-18.066,-59.570,0.000,0
1644802675.726,-155.762,-18.555,-10.742,-48.340,0.000,0
1644802675.730,-166.016,-33.691,-10.254,-62.012,0.000,0
1644802675.734,-168.945,-39.551,-14.648,-83.008,0.000,0
1644802675.738,-154.785,-25.391,-11.719,-86.426,0.000,0
1644802675.742,-140.625,-18.066,-8.301,-47.852,0.000,0
1644802675.746,-140.625,-11.719,-9.766,-41.016,0.000,0
1644802675.749,-147.461,-10.742,-15.137,-69.336,0.000,0
1644802675.753,-147.949,-31.738,-16.113,-75.195,0.000,0
1644802675.757,-137.695,-21.973,-15.137,-71.777,0.000,0
1644802675.761,-130.859,2.441,-19.043,-60.059,0.000,0
1644802675.765,-136.719,7.324,-18.066,-34.668,0.000,0
1644802675.769,-144.531,-16.113,-19.531,-34.180,0.000,0
1644802675.773,-158.691,-40.039,-23.926,-73.242,0.000,0
1644802675.777,-152.344,-25.879,-21.484,-90.820,0.000,0
1644802675.781,-128.906,-5.859,-20.020,-66.895,0.000,0
1644802675.784,-136.230,-8.789,-21.484,-39.551,0.000,0
1644802675.788,-146.484,-19.043,-23.926,-46.387,0.000,0
1644802675.792,-146.973,-30.273,-25.391,-75.195,0.000,0
1644802675.796,-147.949,-25.391,-25.391,-75.684,0.000,0
1644802675.800,-132.324,-16.602,-21.973,-55.176,0.000,0
1644802675.804,-135.742,-8.789,-21.973,-46.387,0.000,0
1644802675.808,-157.715,-12.207,-23.438,-58.594,0.000,0
1644802675.812,-169.922,-42.969,-23.926,-79.102,0.000,0
1644802675.816,-151.855,-51.270,-18.555,-68.848,0.000,0
1644802675.820,-138.184,-21.973,-14.648,-51.758,0.000,0
1644802675.823,-138.672,4.883,-14.160,-47.852,0.000,0
1644802675.827,-124.512,-11.230,-11.230,-34.180,0.000,0
1644802675.831,-142.090,-43.945,-11.230,-48.340,0.000,0
1644802675.835,-156.738,-37.109,-16.113,-77.148,0.000,0
1644802675.839,-151.855,-4.395,-20.996,-82.031,0.000,0
1644802675.843,-147.461,-2.441,-19.531,-57.617,0.000,0
1644802675.847,-152.344,-30.273,-15.137,-36.621,0.000,0
1644802675.850,-172.363,-41.504,-13.184,-55.664,0.000,0
1644802675.854,-168.945,-34.180,-11.719,-78.613,0.000,0
1644802675.858,-144.531,-19.531,-12.207,-58.105,0.000,0
1644802675.862,-131.348,-8.301,-14.160,-42.969,0.000,0
1644802675.866,-144.043,-2.441,-11.719,-39.551,0.000,0
1644802675.870,-168.457,-21.973,-17.090,-68.848,0.000,0
1644802675.874,-166.504,-45.410,-15.137,-87.402,0.000,0
1644802675.877,-149.414,-16.602,-10.742,-73.242,0.000,0
1644802675.881,-149.414,10.742,-18.066,-64.453,0.000,0
1644802675.885,-151.367,4.883,-20.996,-55.664,0.000,0
1644802675.889,-158.691,-37.109,-21.484,-51.270,0.000,0
1644802675.893,-168.457,-49.805,-18.555,-76.172,0.000,0
1644802675.897,-158.203,-2.441,-17.090,-86.914,0.000,0
1644802675.901,-148.438,11.230,-17.578,-59.570,0.000,0
1644802675.905,-142.090,-0.977,-15.137,-39.062,0.000,0
1644802675.909,-153.809,-17.090,-9.277,-41.504,0.000,0
1644802675.913,-164.062,-34.180,-10.254,-70.312,0.000,0
1644802675.917,-146.484,-17.090,-12.695,-75.684,0.000,0
1644802675.921,-130.371,-8.301,-9.277,-42.480,0.000,0
1644802675.924,-130.859,-10.254,-7.812,-35.156,0.000,0
1644802675.928,-149.902,-11.230,-11.230,-52.246,0.000,0
1644802675.932,-160.156,-34.180,-13.672,-66.895,0.000,0
1644802675.936,-141.113,-23.926,-11.230,-70.312,0.000,0
1644802675.940,-133.789,8.301,-12.695,-55.664,0.000,1
1644802675.944,-142.578,4.883,-17.090,-41.992,0.000,0
1644802675.948,-151.367,-24.902,-17.090,-43.945,0.000,0
1644802675.952,-166.992,-47.852,-16.602,-53.223,0.000,0
1644802675.955,-164.062,-29.297,-19.531,-66.406,0.000,0
1644802675.959,-152.832,-3.906,-20.996,-47.363,0.000,0
1644802675.963,-157.227,-10.254,-20.508,-26.855,0.000,0
1644802675.967,-161.133,-26.855,-21.973,-43.457,0.000,0
1644802675.971,-169.922,-43.457,-20.508,-61.523,0.000,0
1644802675.975,-171.387,-35.156,-20.020,-75.684,0.000,0
1644802675.979,-146.973,-11.719,-16.602,-73.730,0.000,0
1644802675.983,-137.207,-6.348,-14.648,-46.875,0.000,0
1644802675.986,-151.855,-14.160,-19.043,-41.504,0.000,0
1644802675.990,-162.109,-35.645,-21.973,-69.824,0.000,0
1644802675.995,-145.508,-47.852,-20.996,-69.824,0.000,0
1644802675.998,-143.066,-18.066,-22.461,-52.246,0.000,0
1644802676.002,-152.832,11.230,-24.414,-53.223,0.000,0
1644802676.006,-146.973,-6.836,-22.949,-51.270,0.000,0
1644802676.010,-163.086,-40.527,-22.461,-69.824,0.000,0
1644802676.014,-176.758,-44.434,-28.320,-97.168,0.000,0
1644802676.018,-153.809,-17.090,-27.832,-78.613,0.000,0
1644802676.022,-138.184,-5.371,-19.043,-43.457,0.000,0
1644802676.026,-143.066,-21.484,-19.531,-48.828,0.000,0
1644802676.029,-157.715,-37.598,-25.391,-69.824,0.000,0
1644802676.033,-164.062,-32.227,-27.832,-83.496,0.000,0
1644802676.037,-150.391,-14.648,-19.531,-69.824,0.000,0
1644802676.041,-148.926,-0.977,-13.184,-36.133,0.000,0
1644802676.045,-155.273,-2.441,-17.090,-41.504,0.000,0
1644802676.049,-162.598,-28.320,-19.531,-59.082,0.000,0
1644802676.053,-167.969,-41.504,-12.695,-68.359,0.000,0
1644802676.057,-151.855,-18.066,-10.254,-70.801,0.000,0
1644802676.060,-139.648,-3.906,-17.578,-58.594,0.000,0
1644802676.064,-143.066,-10.254,-12.207,-39.551,0.000,0
1644802676.068,-148.926,-34.180,-8.301,-38.574,0.000,0
1644802676.072,-161.621,-43.457,-12.207,-65.918,0.000,0
1644802676.076,-156.250,-13.672,-11.719,-71.777,0.000,0
1644802676.080,-127.441,0.977,-12.207,-47.363,0.000,0
1644802676.084,-117.188,-14.648,-11.719,-32.715,0.000,0
1644802676.088,-131.348,-41.504,-10.742,-27.344,0.000,0
1644802676.092,-161.133,-42.480,-12.207,-61.035,0.000,0
1644802676.096,-158.203,-16.113,-11.719,-96.191,0.000,0
1644802676.100,-134.277,0.488,-12.207,-74.707,0.000,0
1644802676.104,-143.066,-2.441,-13.672,-53.711,0.000,0
1644802676.108,-158.203,-26.367,-12.207,-55.176,0.000,0
1644802676.111,-158.691,-48.340,-14.160,-67.871,0.000,0
1644802676.115,-147.949,-41.504,-17.578,-72.754,0.000,0
1644802676.119,-145.508,-10.254,-16.602,-59.082,0.000,0
1644802676.123,-147.949,1.953,-14.160,-43.945,0.000,0
1644802676.127,-150.879,-24.902,-11.230,-40.527,0.000,0
1644802676.131,-160.645,-49.316,-13.672,-55.664,0.000,0
1644802676.135,-156.738,-32.227,-13.184,-68.359,0.000,0
1644802676.139,-124.512,-2.441,-10.254,-60.059,0.000,0
1644802676.143,-117.676,-1.953,-8.789,-45.410,0.000,0
1644802676.146,-140.137,-21.973,-7.324,-41.504,0.000,0
1644802676.150,-157.715,-46.875,-10.742,-69.824,0.000,0
1644802676.154,-149.902,-44.434,-13.184,-85.938,0.000,0
1644802676.158,-130.859,-19.531,-12.207,-62.988,0.000,0
1644802676.162,-131.348,-1.953,-10.742,-41.504,0.000,0
1644802676.166,-144.531,-5.859,-16.113,-37.598,0.000,0
1644802676.170,-148.926,-36.133,-20.508,-64.453,0.000,0
1644802676.174,-147.949,-42.480,-14.648,-80.078,0.000,0
1644802676.177,-145.996,-13.184,-13.672,-62.012,0.000,0
1644802676.182,-136.230,5.371,-16.602,-47.852,0.000,0
1644802676.186,-127.930,-6.348,-13.184,-38.086,0.000,0
1644802676.190,-133.789,-45.898,-6.348,-34.668,0.000,0
1644802676.193,-139.160,-46.387,-5.859,-56.641,0.000,0
1644802676.197,-126.465,-5.859,-11.230,-70.801,0.000,0
1644802676.201,-125.977,-8.789,-14.648,-37.109,0.000,0
1644802676.205,-137.207,-20.020,-12.207,-30.273,0.000,0
1644802676.209,-155.273,-38.574,-8.789,-65.430,0.000,0
1644802676.213,-158.203,-44.922,-14.648,-88.867,0.000,0
1644802676.217,-130.859,-20.020,-15.625,-71.289,0.000,0
1644802676.221,-134.277,-14.160,-8.789,-32.227,0.000,0
1644802676.224,-159.180,-10.254,-9.277,-41.504,0.000,0
1644802676.229,-162.598,-20.020,-9.766,-60.547,0.000,0
1644802676.232,-157.715,-36.133,-8.789,-72.754,0.000,0
1644802676.236,-153.320,-13.672,-6.836,-77.148,0.000,0
1644802676.240,-149.902,10.254,-2.441,-68.359,0.000,0
1644802676.244,-155.762,0.488,-3.418,-62.500,0.000,0
1644802676.248,-162.598,-33.203,-4.395,-59.082,0.000,0
1644802676.252,-163.086,-49.316,-7.324,-78.613,0.000,0
1644802676.256,-152.344,-18.066,-10.742,-80.566,0.000,0
1644802676.259,-138.672,0.977,-10.742,-61.035,0.000,0
1644802676.263,-150.391,-9.766,-7.324,-46.387,0.000,0
1644802676.267,-174.316,-28.809,-6.348,-50.781,0.000,0
1644802676.271,-183.105,-38.574,-7.812,-89.355,0.000,0
1644802676.275,-167.480,-21.484,-7.812,-104.492,0.000,0
1644802676.279,-143.555,-15.625,-10.254,-72.754,0.000,0
1644802676.283,-147.949,-14.160,-16.113,-48.340,0.000,0
1644802676.287,-166.016,-15.625,-17.578,-63.477,0.000,0
1644802676.291,-172.363,-43.457,-19.043,-85.449,0.000,0
1644802676.295,-165.527,-33.691,-18.555,-83.984,0.000,0
1644802676.299,-149.902,-9.766,-12.695,-70.312,0.000,0
1644802676.302,-153.809,-4.395,-9.277,-53.223,0.000,0
1644802676.306,-166.992,-21.484,-10.254,-47.363,0.000,0
1644802676.310,-171.875,-59.570,-13.672,-64.941,0.000,0
1644802676.314,-169.922,-38.086,-11.230,-81.543,0.000,0
1644802676.318,-149.902,0.488,-8.789,-76.172,0.000,0
1644802676.322,-137.207,-2.441,-14.160,-66.406,0.000,0
1644802676.326,-144.531,-20.020,-16.602,-55.664,0.000,0
1644802676.330,-160.645,-41.992,-14.648,-72.754,0.000,0
1644802676.334,-172.363,-35.156,-13.672,-90.332,0.000,0
1644802676.338,-152.832,-14.648,-10.254,-64.941,0.000,0
1644802676.341,-137.207,-7.324,-5.859,-41.992,0.000,0
1644802676.345,-158.691,-5.859,-8.301,-35.156,0.000,0
1644802676.349,-166.992,-24.902,-8.301,-53.223,0.000,0
1644802676.353,-160.645,-31.738,-6.836,-74.219,0.000,0
1644802676.357,-149.902,-4.395,-12.207,-60.059,0.000,0
1644802676.361,-138.672,6.836,-13.184,-40.527,0.000,0
1644802676.365,-143.066,-4.395,-8.301,-41.992,0.000,0
1644802676.369,-147.949,-46.875,-12.695,-38.574,0.000,0
1644802676.373,-155.762,-56.152,-18.555,-60.547,0.000,0
1644802676.377,-156.250,-9.277,-18.555,-76.660,0.000,0
1644802676.381,-144.531,1.465,-14.648,-53.711,0.000,0
1644802676.384,-147.461,-16.113,-12.207,-43.457,0.000,0
1644802676.388,-165.039,-35.645,-12.207,-53.223,0.000,0
1644802676.392,-179.199,-38.086,-12.695,-67.871,0.000,0
1644802676.396,-170.410,-13.672,-11.230,-68.359,0.000,0
1644802676.400,-148.438,-11.719,-7.324,-41.016,0.000,0
1644802676.404,-146.973,-8.301,-9.277,-35.156,0.000,0
1644802676.408,-161.621,-12.207,-12.695,-60.059,0.000,0
1644802676.411,-158.203,-37.109,-11.719,-66.895,0.000,0
1644802676.415,-148.926,-19.043,-9.766,-69.824,0.000,0
1644802676.419,-149.414,6.836,-8.301,-71.289,0.000,0
1644802676.423,-142.090,8.301,-3.906,-50.293,0.000,0
1644802676.427,-153.809,-21.484,-4.883,-46.387,0.000,0
1644802676.431,-164.551,-41.992,-6.836,-67.871,0.000,0
1644802676.435,-143.555,-15.625,-3.906,-62.500,0.000,0
1644802676.439,-132.324,3.906,-6.836,-40.527,0.000,0
1644802676.443,-133.301,-4.883,-7.812,-36.621,0.000,0
1644802676.446,-148.926,-17.578,-10.742,-53.711,0.000,0
1644802676.450,-174.805,-31.250,-20.020,-85.449,0.000,0
1644802676.454,-166.016,-20.508,-20.996,-93.262,0.000,0
1644802676.458,-144.043,-12.207,-13.672,-63.965,0.000,0
1644802676.462,-147.461,-20.508,-13.184,-33.203,0.000,0
1644802676.466,-159.180,-11.719,-16.113,-34.668,0.000,0
1644802676.470,-157.715,-30.762,-12.695,-65.918,0.000,0
1644802676.474,-146.484,-29.785,-12.207,-77.148,0.000,0
1644802676.478,-138.184,-2.930,-12.695,-57.129,0.000,0
1644802676.482,-134.277,-3.906,-13.672,-50.781,0.000,0
1644802676.485,-141.602,-24.902,-18.066,-64.453,0.000,0
1644802676.489,-152.832,-57.129,-20.020,-70.801,0.000,0
1644802676.493,-152.832,-40.527,-25.879,-77.148,0.000,0
1644802676.497,-141.113,-0.488,-25.879,-69.824,0.000,0
1644802676.501,-137.695,-1.465,-20.508,-42.480,0.000,0
1644802676.505,-147.461,-12.207,-22.461,-40.527,0.000,0
1644802676.509,-162.598,-27.832,-27.832,-77.148,0.000,0
1644802676.513,-157.715,-26.855,-28.809,-84.473,0.000,0
1644802676.516,-135.254,-14.160,-23.438,-61.035,0.000,0
1644802676.520,-131.348,-10.254,-21.973,-62.988,0.000,0
1644802676.524,-139.160,-9.766,-20.996,-61.523,0.000,0
1644802676.528,-157.227,-41.504,-23.926,-62.988,0.000,0
1644802676.532,-166.504,-53.223,-29.297,-73.242,0.000,0
1644802676.536,-147.461,-21.484,-25.879,-63.477,0.000,0
1644802676.540,-137.207,-4.395,-26.367,-48.828,0.000,0
1644802676.543,-134.766,-8.789,-26.367,-44.434,0.000,0
1644802676.547,-131.348,-42.969,-21.484,-43.945,0.000,0
1644802676.551,-135.254,-49.316,-20.020,-69.824,0.000,0
1644802676.556,-133.789,-9.766,-18.066,-83.984,0.000,0
1644802676.560,-125.977,0.488,-14.648,-51.270,0.000,0
1644802676.563,-127.441,-10.742,-20.020,-32.227,0.000,0
1644802676.567,-143.066,-28.809,-23.438,-51.270,0.000,0
1644802676.571,-148.438,-34.668,-20.996,-86.914,0.000,0
1644802676.575,-135.254,-18.066,-15.625,-84.473,0.000,0
1644802676.579,-127.441,-13.672,-9.766,-54.688,0.000,0
1644802676.583,-135.254,-17.090,-11.230,-45.898,0.000,0
1644802676.587,-155.273,-24.902,-13.184,-61.523,0.000,0
1644802676.590,-160.156,-44.922,-13.672,-75.684,0.000,0
1644802676.594,-151.855,-30.273,-12.695,-65.918,0.000,0
1644802676.598,-139.160,-2.441,-12.695,-53.223,0.000,0
1644802676.602,-132.812,0.488,-11.230,-49.316,0.000,0
1644802676.606,-148.438,-27.344,-11.230,-47.852,0.000,0
1644802676.610,-166.992,-48.828,-10.742,-68.359,0.000,0
1644802676.614,-153.809,-27.832,-10.742,-77.637,0.000,0
1644802676.617,-130.859,-13.672,-10.254,-43.457,0.000,0
1644802676.621,-125.488,-23.438,-11.719,-28.809,0.000,0
1644802676.625,-138.184,-39.551,-14.648,-54.199,0.000,0
1644802676.629,-153.809,-42.969,-11.230,-69.824,0.000,0
1644802676.633,-138.184,-21.973,-6.836,-71.289,0.000,0
1644802676.637,-125.000,-15.625,-9.277,-49.805,0.000,0
1644802676.641,-135.742,-9.766,-14.160,-45.410,0.000,0
1644802676.645,-144.531,-12.695,-15.137,-53.223,0.000,0
1644802676.649,-147.949,-38.574,-12.695,-61.035,0.000,0
1644802676.653,-144.043,-41.504,-12.695,-61.035,0.000,0
1644802676.657,-133.301,-13.672,-12.695,-45.898,0.000,0
1644802676.661,-132.812,8.301,-11.719,-41.016,0.000,0
1644802676.664,-137.207,-14.160,-10.254,-39.551,0.000,0
1644802676.668,-148.926,-51.270,-14.648,-66.406,0.000,0
1644802676.672,-145.996,-45.410,-20.020,-82.520,0.000,0
1644802676.676,-128.418,-13.672,-18.555,-67.383,0.000,0
1644802676.680,-119.141,-5.371,-13.672,-28.809,0.000,0
1644802676.684,-126.465,-15.625,-12.695,-22.949,0.000,0
1644802676.688,-157.227,-31.250,-20.508,-63.477,0.000,0
1644802676.692,-155.273,-26.855,-18.066,-80.078,0.000,0
1644802676.696,-133.301,-5.859,-9.277,-57.617,0.000,0
1644802676.699,-143.066,1.465,-16.113,-34.668,0.000,0
1644802676.703,-152.832,-3.418,-19.531,-34.180,0.000,0
1644802676.707,-152.344,-22.461,-17.090,-45.410,0.000,0
1644802676.711,-150.879,-32.227,-16.602,-63.477,0.000,0
1644802676.715,-135.254,-17.578,-14.160,-52.246,0.000,0
1644802676.719,-132.812,4.395,-11.230,-44.434,0.000,0
1644802676.723,-157.227,5.859,-12.695,-53.711,0.000,0
1644802676.727,-166.504,-35.156,-10.742,-57.617,0.000,0
1644802676.730,-157.715,-45.410,-15.137,-80.566,0.000,0
1644802676.734,-144.531,-11.230,-22.461,-93.262,0.000,1
1644802676.738,-143.066,2.930,-18.555,-65.430,0.000,0
1644802676.742,-140.137,-17.090,-16.113,-34.180,0.000,0
1644802676.746,-139.648,-35.156,-12.695,-37.598,0.000,0
1644802676.750,-162.598,-30.762,-14.648,-77.637,0.000,0
1644802676.754,-146.973,-17.090,-16.113,-69.824,0.000,0
1644802676.758,-129.883,2.930,-13.184,-43.457,0.000,0
1644802676.762,-125.977,6.348,-13.672,-28.809,0.000,0
1644802676.765,-141.113,-14.648,-17.090,-35.645,0.000,0
1644802676.769,-163.574,-39.062,-17.090,-64.453,0.000,0
1644802676.773,-143.066,-29.297,-14.648,-61.523,0.000,0
1644802676.777,-133.301,3.418,-14.648,-43.457,0.000,0
1644802676.781,-141.113,8.301,-17.578,-45.898,0.000,0
1644802676.785,-145.996,-19.043,-14.648,-41.992,0.000,0
1644802676.789,-152.344,-36.621,-14.160,-56.152,0.000,0
1644802676.793,-144.043,-22.949,-12.207,-67.871,0.000,0
1644802676.796,-141.602,1.953,-8.789,-45.410,0.000,0
1644802676.800,-137.695,1.953,-8.789,-33.691,0.000,0
1644802676.804,-142.090,-20.996,-6.348,-38.086,0.000,0
1644802676.808,-152.832,-39.551,-11.230,-63.965,0.000,0
1644802676.812,-153.320,-23.438,-13.184,-69.824,0.000,0
1644802676.816,-142.578,-5.371,-10.742,-48.340,0.000,0
1644802676.820,-129.883,-14.648,-8.789,-20.996,0.000,0
1644802676.824,-144.531,-10.742,-4.883,-30.762,0.000,0
1644802676.827,-155.762,-23.926,-2.441,-57.617,0.000,0
1644802676.831,-152.344,-29.297,-8.301,-55.176,0.000,0
1644802676.836,-145.508,-3.906,-10.254,-37.109,0.000,0
1644802676.840,-136.230,8.789,-2.441,-27.832,0.000,0
1644802676.844,-141.113,-4.395,-4.395,-30.762,0.000,0
1644802676.848,-157.715,-32.715,-9.277,-56.152,0.000,0
1644802676.852,-149.902,-27.832,-4.883,-64.941,0.000,0
1644802676.855,-140.137,1.465,-5.371,-53.711,0.000,0
1644802676.859,-137.207,12.207,-7.324,-43.457,0.000,0
1644802676.863,-126.953,-3.906,-2.441,-28.809,0.000,0
1644802676.867,-149.902,-26.855,-6.836,-53.711,0.000,0
1644802676.871,-167.480,-21.973,-11.230,-81.543,0.000,0
1644802676.875,-150.879,-4.395,-9.766,-74.219,0.000,0
1644802676.879,-138.672,2.441,-11.719,-58.105,0.000,0
1644802676.883,-140.625,1.465,-10.742,-48.828,0.000,0
1644802676.887,-161.621,-24.414,-15.137,-62.500,0.000,0
1644802676.891,-163.574,-34.180,-14.648,-75.195,0.000,0
1644802676.894,-138.672,-3.906,-11.719,-63.477,0.000,0
1644802676.898,-131.348,10.742,-13.672,-34.668,0.000,0
1644802676.902,-139.648,-0.977,-13.672,-25.879,0.000,0
1644802676.906,-155.273,-25.391,-15.137,-48.828,0.000,0
1644802676.910,-164.551,-33.203,-12.695,-77.148,0.000,0
1644802676.914,-151.855,-6.836,-13.672,-71.777,0.000,0
1644802676.918,-131.348,8.789,-9.766,-41.992,0.000,0
1644802676.922,-122.070,-5.859,-2.930,-34.180,0.000,0
1644802676.925,-143.555,-23.926,-7.324,-40.527,0.000,0
1644802676.930,-167.969,-22.461,-8.301,-64.941,0.000,0
1644802676.934,-149.414,-12.695,-8.301,-75.195,0.000,0
1644802676.938,-137.207,-6.836,-8.789,-54.688,0.000,0
1644802676.941,-144.531,-5.371,-10.742,-46.875,0.000,0
1644802676.945,-153.320,-24.902,-17.578,-44.922,0.000,0
1644802676.949,-166.016,-47.852,-18.066,-62.012,0.000,0
1644802676.953,-145.020,-42.480,-14.160,-62.012,0.000,0
1644802676.957,-130.371,-12.695,-11.230,-43.457,0.000,0
1644802676.961,-137.207,10.742,-12.207,-32.227,0.000,0
1644802676.965,-142.090,-15.137,-13.184,-40.039,0.000,0
1644802676.969,-161.133,-53.223,-16.602,-64.453,0.000,0
1644802676.972,-152.832,-21.484,-21.973,-72.754,0.000,0
1644802676.976,-132.812,19.531,-18.555,-64.941,0.000,0
1644802676.980,-131.836,2.930,-16.602,-46.875,0.000,0
1644802676.984,-146.973,-21.484,-20.508,-42.969,0.000,0
1644802676.988,-167.969,-34.668,-21.484,-62.988,0.000,0
1644802676.992,-155.273,-27.344,-19.043,-70.312,0.000,0
1644802676.996,-139.160,-15.625,-20.020,-51.270,0.000,0
1644802676.999,-145.508,-13.184,-17.578,-43.945,0.000,0
1644802677.003,-160.156,-23.438,-19.043,-46.387,0.000,0
1644802677.007,-168.457,-40.527,-18.066,-57.129,0.000,0
1644802677.011,-151.367,-36.133,-8.301,-75.684,0.000,0
1644802677.015,-147.949,-13.672,-14.648,-71.777,0.000,0
1644802677.019,-152.344,1.465,-20.996,-56.641,0.000,0
1644802677.023,-151.855,-11.230,-15.137,-54.199,0.000,0
1644802677.027,-161.621,-50.781,-15.137,-59.570,0.000,0
1644802677.031,-160.645,-42.969,-15.625,-73.242,0.000,0
1644802677.035,-154.297,-2.930,-23.438,-77.637,0.000,0
1644802677.038,-135.742,-2.441,-28.809,-58.105,0.000,0
1644802677.042,-135.254,-16.602,-24.414,-38.574,0.000,0
1644802677.046,-161.621,-37.598,-22.949,-54.199,0.000,0
1644802677.050,-154.297,-36.621,-24.902,-81.543,0.000,0
1644802677.054,-126.953,-16.602,-24.414,-71.777,0.000,0
1644802677.058,-134.277,-13.672,-22.461,-42.480,0.000,0
1644802677.062,-160.156,-9.766,-21.973,-31.738,0.000,0
1644802677.066,-175.293,-23.438,-20.508,-51.758,0.000,0
1644802677.070,-168.457,-36.621,-17.578,-79.590,0.000,0
1644802677.073,-149.902,-10.254,-14.648,-74.219,0.000,0
1644802677.077,-145.508,7.812,-14.160,-49.805,0.000,0
1644802677.081,-148.438,-5.371,-17.090,-37.109,0.000,0
1644802677.085,-160.156,-32.715,-17.090,-42.480,0.000,0
1644802677.089,-157.715,-42.969,-17.090,-68.848,0.000,0
1644802677.093,-151.367,-19.531,-20.020,-70.801,0.000,0
1644802677.097,-143.555,6.836,-15.137,-51.270,0.000,0
1644802677.101,-134.766,-5.371,-11.719,-43.457,0.000,0
1644802677.104,-155.762,-41.504,-18.066,-39.062,0.000,0
1644802677.108,-168.945,-40.039,-24.414,-67.871,0.000,0
1644802677.112,-158.691,-22.461,-22.949,-82.031,0.000,0
1644802677.116,-145.996,-8.789,-18.555,-53.223,0.000,0
1644802677.120,-144.043,-3.906,-15.137,-43.945,0.000,0
1644802677.124,-167.480,-21.973,-16.113,-53.711,0.000,0
1644802677.128,-175.293,-39.551,-17.090,-74.219,0.000,0
1644802677.132,-152.832,-25.879,-12.695,-78.125,0.000,0
1644802677.136,-145.020,-11.230,-8.789,-55.176,0.000,0
1644802677.139,-146.484,-13.672,-11.719,-33.203,0.000,0
1644802677.143,-143.066,-36.621,-11.230,-39.062,0.000,0
1644802677.147,-149.902,-64.453,-7.324,-51.270,0.000,0
1644802677.151,-153.320,-36.133,-14.648,-56.152,0.000,0
1644802677.155,-143.555,-1.953,-19.531,-51.758,0.000,0
1644802677.159,-136.719,-5.859,-18.066,-34.668,0.000,0
1644802677.163,-140.137,-21.484,-17.578,-34.668,0.000,0
1644802677.167,-159.180,-37.598,-18.066,-62.988,0.000,0
1644802677.171,-160.645,-26.367,-19.531,-72.754,0.000,0
1644802677.174,-146.973,-10.742,-24.902,-50.781,0.000,0
1644802677.178,-143.066,-11.230,-23.438,-40.527,0.000,0
1644802677.182,-146.484,-19.043,-14.648,-33.691,0.000,0
1644802677.186,-154.297,-33.691,-12.207,-55.664,0.000,0
1644802677.190,-143.555,-36.621,-11.230,-73.242,0.000,0
1644802677.194,-132.324,-12.695,-15.625,-46.875,0.000,0
1644802677.198,-156.738,12.695,-19.043,-47.363,0.000,0
1644802677.202,-165.039,-0.488,-15.137,-48.340,0.000,0
1644802677.205,-165.527,-29.297,-17.090,-54.199,0.000,0
1644802677.210,-166.016,-31.738,-18.555,-71.289,0.000,0
1644802677.214,-148.926,0.977,-14.648,-65.918,0.000,0
1644802677.217,-134.277,12.695,-13.184,-48.340,0.000,0
1644802677.221,-139.160,-1.953,-10.742,-31.250,0.000,0
1644802677.225,-155.762,-18.066,-9.766,-41.504,0.000,0
1644802677.229,-154.297,-27.832,-15.625,-68.848,0.000,0
1644802677.233,-139.160,-12.207,-14.648,-67.871,0.000,0
1644802677.237,-129.395,-6.348,-10.742,-35.645,0.000,0
1644802677.241,-145.996,-1.953,-20.020,-33.203,0.000,0
1644802677.244,-164.551,-13.184,-23.438,-60.547,0.000,0
1644802677.248,-166.016,-36.133,-18.066,-79.102,0.000,0
1644802677.252,-163.574,-19.043,-20.020,-67.871,0.000,0
1644802677.256,-154.297,5.859,-18.555,-41.504,0.000,0
1644802677.260,-149.902,-1.953,-12.695,-29.785,0.000,0
1644802677.264,-148.926,-27.344,-7.324,-36.621,0.000,0
1644802677.268,-142.090,-28.320,-3.418,-60.059,0.000,0
1644802677.272,-130.859,-1.465,-3.906,-65.430,0.000,0
1644802677.275,-127.930,6.348,-4.395,-38.086,0.000,0
1644802677.279,-136.230,-4.883,-9.766,-12.695,0.000,0
1644802677.283,-146.973,-16.602,-8.301,-33.203,0.000,0
1644802677.287,-164.062,-30.762,-7.324,-69.824,0.000,0
1644802677.291,-154.297,-11.719,-9.277,-69.824,0.000,0
1644802677.295,-128.418,-4.395,-1.465,-29.297,0.000,0
1644802677.299,-135.742,-13.672,0.000,-8.789,0.000,0
1644802677.303,-158.691,-14.648,-9.277,-26.367,0.000,0
1644802677.307,-160.645,-35.645,-12.695,-58.105,0.000,0
1644802677.311,-149.902,-22.461,-12.207,-67.383,0.000,0
1644802677.315,-138.184,0.977,-10.254,-47.852,0.000,0
1644802677.318,-135.254,-4.395,-8.301,-43.945,0.000,0
1644802677.322,-156.250,-23.926,-9.277,-60.547,0.000,0
1644802677.326,-172.363,-47.363,-15.137,-75.684,0.000,0
1644802677.330,-159.180,-32.227,-17.578,-72.266,0.000,0
1644802677.334,-135.254,3.906,-14.160,-64.453,0.000,0
1644802677.338,-141.113,1.465,-6.348,-49.805,0.000,0
1644802677.342,-159.180,-18.555,-1.953,-38.574,0.000,0
1644802677.345,-165.039,-32.715,-3.418,-57.617,0.000,0
1644802677.349,-154.297,-20.508,-3.906,-72.754,0.000,0
1644802677.353,-140.137,-6.836,4.395,-49.316,0.000,0
1644802677.357,-146.484,-6.836,10.254,-33.203,0.000,0
1644802677.361,-147.461,-6.836,7.324,-41.992,0.000,0
1644802677.365,-157.715,-32.715,1.465,-56.641,0.000,0
1644802677.369,-162.598,-45.898,1.465,-59.570,0.000,0
1644802677.373,-134.277,-25.391,2.441,-41.992,0.000,0
1644802677.376,-127.441,-4.883,0.488,-38.086,0.000,0
1644802677.380,-147.461,-10.742,-2.441,-41.992,0.000,0
1644802677.384,-154.785,-42.480,-5.371,-52.246,0.000,0
1644802677.388,-149.414,-45.898,-6.348,-56.152,0.000,0
1644802677.392,-138.672,-1.465,-12.695,-56.641,0.000,0
1644802677.396,-123.535,9.277,-8.789,-34.180,0.000,0
1644802677.400,-138.672,-3.906,-2.930,-30.762,0.000,0
1644802677.404,-166.992,-27.344,-8.789,-54.199,0.000,0
1644802677.408,-166.504,-33.691,-14.160,-67.871,0.000,0
1644802677.412,-141.113,-16.113,-13.184,-56.641,0.000,0
1644802677.415,-120.605,-8.789,-11.719,-34.668,0.000,0
1644802677.419,-126.953,-8.789,-11.230,-40.527,0.000,0
1644802677.423,-146.484,-31.250,-10.254,-63.965,0.000,0
1644802677.427,-152.832,-48.340,-10.742,-69.824,0.000,0
1644802677.431,-135.254,-23.926,-11.719,-65.430,0.000,0
1644802677.435,-118.164,-4.883,-12.207,-62.012,0.000,0
1644802677.439,-126.953,-3.906,-14.648,-51.270,0.000,0
1644802677.443,-137.695,-24.902,-8.789,-44.922,0.000,0
1644802677.447,-151.855,-41.016,-0.488,-60.059,0.000,0
1644802677.451,-147.461,-10.742,0.000,-61.523,0.000,0
1644802677.454,-133.789,9.766,-1.465,-36.133,0.000,0
1644802677.458,-138.184,-6.836,-6.348,-31.250,0.000,2
1644802677.462,-145.996,-49.805,-2.441,-25.879,0.000,0
1644802677.466,-160.156,-54.688,-5.371,-54.199,0.000,0
1644802677.470,-163.574,-20.508,-12.695,-79.102,0.000,0
1644802677.474,-146.484,-14.160,-13.672,-52.734,0.000,0
1644802677.478,-139.648,-26.367,-11.230,-38.574,0.000,0
1644802677.481,-162.109,-21.973,-12.207,-57.617,0.000,0
1644802677.485,-174.805,-37.598,-15.137,-73.242,0.000,0
1644802677.490,-155.273,-32.227,-12.207,-67.871,0.000,0
1644802677.494,-145.020,-8.301,-7.812,-55.664,0.000,0
1644802677.497,-159.180,-10.742,-11.719,-44.434,0.000,0
1644802677.501,-165.527,-30.273,-17.578,-49.316,0.000,0
1644802677.505,-167.480,-52.246,-15.137,-71.289,0.000,0
1644802677.509,-159.668,-44.434,-16.113,-80.566,0.000,0
1644802677.513,-139.648,-23.926,-16.113,-56.641,0.000,0
1644802677.517,-130.371,-17.090,-10.742,-36.621,0.000,0
1644802677.521,-139.160,-35.645,-4.883,-24.902,0.000,0
1644802677.525,-158.691,-50.293,-7.812,-63.965,0.000,0
1644802677.528,-150.879,-26.855,-12.207,-91.797,0.000,0
1644802677.532,-130.371,-6.836,-9.277,-69.336,0.000,0
1644802677.536,-128.418,-4.883,-10.742,-56.641,0.000,0
1644802677.540,-135.742,-9.277,-9.277,-56.641,0.000,0
1644802677.544,-151.855,-34.668,-7.324,-67.871,0.000,0
1644802677.548,-146.973,-46.387,-8.789,-69.824,0.000,0
1644802677.552,-122.559,-24.414,-5.371,-58.105,0.000,0
1644802677.556,-115.234,-10.254,-4.883,-38.574,0.000,0
1644802677.560,-137.695,-23.926,-10.254,-39.062,0.000,0
1644802677.563,-154.785,-54.688,-15.625,-56.152,0.000,0
1644802677.567,-156.250,-56.641,-19.043,-77.637,0.000,0
1644802677.571,-150.879,-15.137,-21.973,-78.613,0.000,0
1644802677.575,-134.766,5.371,-22.461,-51.270,0.000,0
1644802677.579,-139.160,-16.602,-15.625,-40.527,0.000,0
1644802677.583,-166.992,-45.410,-10.254,-50.293,0.000,0
1644802677.587,-171.875,-35.156,-14.648,-71.777,0.000,0
1644802677.591,-136.230,-15.137,-15.625,-62.012,0.000,0
1644802677.595,-117.676,-8.789,-12.207,-30.273,0.000,0
1644802677.598,-142.090,-16.113,-13.184,-35.156,0.000,0
1644802677.602,-154.297,-44.922,-16.602,-50.781,0.000,0
1644802677.606,-151.367,-52.734,-15.137,-74.707,0.000,0
1644802677.610,-145.020,-40.527,-9.766,-68.359,0.000,0
1644802677.614,-134.277,-22.949,-11.719,-36.133,0.000,0
1644802677.618,-142.578,-4.395,-16.602,-45.410,0.000,0
1644802677.622,-159.180,-31.250,-14.160,-51.270,0.000,0
1644802677.625,-164.062,-54.199,-13.184,-67.383,0.000,0
1644802677.629,-157.715,-30.273,-14.160,-72.266,0.000,0
1644802677.633,-149.414,-5.859,-15.137,-56.641,0.000,0
1644802677.637,-142.578,-10.254,-13.184,-44.434,0.000,0
1644802677.641,-155.273,-38.574,-15.137,-53.223,0.000,0
1644802677.645,-160.156,-52.734,-20.996,-66.406,0.000,0
1644802677.649,-140.137,-36.621,-15.625,-59.082,0.000,0
1644802677.653,-120.117,-29.785,-7.324,-38.086,0.000,0
1644802677.657,-119.141,-31.250,-3.418,-25.879,0.000,0
1644802677.660,-150.391,-30.273,-11.230,-55.176,0.000,0
1644802677.664,-161.133,-46.875,-14.160,-68.848,0.000,0
1644802677.668,-134.766,-38.574,-13.672,-62.012,0.000,0
1644802677.672,-121.582,-15.625,-18.066,-63.965,0.000,0
1644802677.676,-125.488,-8.789,-17.578,-61.035,0.000,0
1644802677.680,-140.625,-22.949,-17.578,-47.363,0.000,0
1644802677.684,-163.574,-44.922,-17.578,-62.012,0.000,0
1644802677.688,-152.832,-29.785,-16.113,-83.984,0.000,0
1644802677.692,-134.766,-3.906,-18.066,-68.359,0.000,0
1644802677.696,-145.508,-5.859,-21.484,-52.734,0.000,0
1644802677.699,-155.273,-33.203,-20.996,-50.293,0.000,0
1644802677.703,-162.109,-50.781,-19.531,-74.707,0.000,0
1644802677.707,-157.227,-25.879,-16.602,-93.750,0.000,0
1644802677.711,-140.137,-3.906,-14.160,-84.473,0.000,0
1644802677.715,-137.695,-3.418,-14.160,-60.547,0.000,0
1644802677.719,-144.531,-14.648,-15.625,-49.316,0.000,0
1644802677.723,-164.062,-38.574,-15.625,-67.383,0.000,0
1644802677.727,-161.133,-43.457,-18.066,-80.566,0.000,0
1644802677.730,-144.043,-20.996,-20.020,-68.359,0.000,0
1644802677.734,-145.996,-6.348,-19.043,-58.594,0.000,0
1644802677.738,-155.762,-16.113,-16.602,-50.781,0.000,0
1644802677.742,-161.133,-48.340,-10.742,-53.223,0.000,0
1644802677.746,-148.438,-49.805,-10.254,-60.547,0.000,0
1644802677.750,-138.184,-13.672,-23.926,-67.871,0.000,0
1644802677.754,-134.277,3.418,-28.320,-61.035,0.000,0
1644802677.758,-125.977,-17.578,-20.508,-37.598,0.000,0
1644802677.761,-130.859,-44.922,-23.926,-39.062,0.000,0
1644802677.765,-140.625,-31.250,-29.297,-64.453,0.000,0
1644802677.769,-133.301,-7.812,-28.320,-69.336,0.000,0
1644802677.773,-127.930,-0.977,-31.738,-54.688,0.000,0
1644802677.777,-129.395,-4.395,-36.133,-42.480,0.000,0
1644802677.781,-133.789,-19.531,-36.133,-43.457,0.000,0
1644802677.785,-129.883,-36.133,-32.715,-57.129,0.000,0
1644802677.789,-116.211,-21.973,-28.809,-56.152,0.000,0
1644802677.793,-111.816,-4.395,-30.273,-41.016,0.000,0
1644802677.797,-119.629,-8.301,-29.297,-40.039,0.000,0
1644802677.800,-143.066,-33.691,-26.367,-56.152,0.000,0
1644802677.804,-150.879,-52.734,-22.949,-65.430,0.000,0
1644802677.808,-137.695,-16.602,-20.020,-63.965,0.000,0
1644802677.812,-126.953,9.766,-19.043,-45.410,0.000,0
1644802677.816,-120.117,-4.395,-15.625,-33.691,0.000,0
1644802677.820,-143.066,-30.762,-18.066,-48.828,0.000,0
1644802677.824,-165.039,-50.781,-20.996,-72.754,0.000,0
1644802677.828,-148.438,-29.785,-15.625,-73.242,0.000,0
1644802677.832,-137.695,-11.719,-10.742,-50.293,0.000,0
1644802677.835,-141.602,-16.113,-10.742,-34.180,0.000,0
1644802677.839,-151.367,-26.367,-16.602,-42.969,0.000,0
1644802677.843,-159.668,-38.574,-18.555,-68.359,0.000,0
1644802677.847,-147.461,-37.598,-16.113,-73.242,0.000,0
1644802677.851,-140.137,-13.672,-13.672,-45.410,0.000,0
1644802677.855,-132.324,8.789,-13.672,-46.387,0.000,0
1644802677.859,-139.648,-16.602,-11.719,-55.176,0.000,0
1644802677.863,-159.180,-48.340,-9.277,-63.477,0.000,0
1644802677.867,-141.113,-36.133,-12.207,-83.496,0.000,0
1644802677.871,-124.023,-3.418,-14.648,-72.266,0.000,0
1644802677.875,-125.977,1.465,-12.207,-51.270,0.000,0
1644802677.879,-131.348,-15.137,-16.113,-45.410,0.000,0
1644802677.882,-144.531,-37.598,-20.508,-62.988,0.000,0
1644802677.886,-147.949,-27.832,-18.555,-88.379,0.000,0
1644802677.890,-141.602,-0.977,-14.160,-67.871,0.000,0
1644802677.894,-117.188,0.977,-8.301,-28.320,0.000,0
1644802677.898,-125.488,-4.883,-11.230,-36.133,0.000,0
1644802677.902,-162.598,-21.973,-10.742,-53.223,0.000,0
1644802677.906,-155.762,-27.344,-2.441,-58.105,0.000,0
1644802677.910,-136.719,-1.465,1.465,-48.340,0.000,0
1644802677.914,-135.742,20.508,2.930,-19.531,0.000,0
1644802677.917,-139.160,18.066,6.348,-8.789,0.000,0
1644802677.921,-135.742,-11.719,3.906,-30.273,0.000,0
1644802677.925,-130.371,-22.461,-2.441,-61.523,0.000,0
1644802677.929,-108.398,14.648,-3.418,-63.477,0.000,0
1644802677.933,-113.770,34.180,-2.441,-38.086,0.000,0
1644802677.937,-124.023,18.066,-3.418,-19.043,0.000,0
1644802677.941,-129.395,-1.953,-6.836,-33.203,0.000,0
1644802677.945,-142.578,6.836,-6.348,-67.871,0.000,0
1644802677.948,-132.812,35.156,-2.930,-78.613,0.000,0
1644802677.952,-121.094,40.039,4.883,-37.598,0.000,0
1644802677.957,-110.840,41.992,9.766,-9.766,0.000,0
1644802677.961,-121.582,44.434,6.836,-29.297,0.000,0
1644802677.965,-131.348,27.344,5.859,-41.016,0.000,0
1644802677.969,-118.652,47.363,3.418,-28.809,0.000,0
1644802677.973,-105.469,65.918,1.465,-15.625,0.000,0
1644802677.976,-113.281,59.570,0.000,-18.066,0.000,0
1644802677.980,-115.723,34.180,-1.465,-32.227,0.000,0
1644802677.984,-120.605,7.324,-2.930,-40.527,0.000,0
1644802677.988,-125.977,31.250,-5.371,-49.316,0.000,0
1644802677.992,-120.117,58.105,-6.348,-66.895,0.000,0
1644802677.996,-106.934,47.363,-4.883,-62.012,0.000,0
1644802678.000,-100.098,25.391,-5.859,-67.383,0.000,0
1644802678.004,-107.910,11.230,-6.836,-83.496,0.000,0
1644802678.008,-104.980,25.391,-8.789,-80.078,0.000,0
1644802678.012,-79.102,36.621,-5.371,-53.223,0.000,0
1644802678.016,-85.449,33.203,-2.441,-35.645,0.000,0
1644802678.019,-102.539,20.020,-2.441,-22.461,0.000,0
1644802678.023,-99.609,-4.395,1.465,-31.738,0.000,0
1644802678.027,-102.539,0.977,6.348,-50.293,0.000,0
1644802678.031,-112.305,25.391,6.836,-45.898,0.000,0
1644802678.035,-113.281,34.668,6.348,-33.691,0.000,0
1644802678.039,-122.559,18.555,4.883,-29.785,0.000,0
1644802678.043,-141.602,-13.672,2.930,-51.758,0.000,0
1644802678.047,-142.578,-8.789,3.906,-73.730,0.000,0
1644802678.051,-122.070,23.926,9.277,-61.523,0.000,0
1644802678.055,-117.676,26.367,11.719,-38.574,0.000,0
1644802678.059,-124.512,-1.953,11.719,-24.902,0.000,0
1644802678.063,-127.441,-22.461,5.371,-27.344,0.000,0
1644802678.066,-123.047,-19.043,2.441,-55.176,0.000,0
1644802678.070,-106.934,-7.324,4.883,-67.871,0.000,0
1644802678.074,-100.098,-11.230,9.766,-47.363,0.000,0
1644802678.078,-108.398,-19.043,15.137,-34.180,0.000,0
1644802678.082,-119.141,-32.227,21.484,-36.133,0.000,0
1644802678.086,-126.465,-36.621,31.250,-52.246,0.000,0
1644802678.090,-114.746,-39.551,43.457,-41.504,0.000,0
1644802678.094,-96.191,-29.785,49.805,-14.648,0.000,0
1644802678.098,-112.305,-5.371,53.223,-26.367,0.000,0
1644802678.101,-124.512,-29.297,64.453,-39.062,0.000,0
1644802678.105,-118.164,-44.922,74.707,-59.082,0.000,0
1644802678.109,-103.027,-18.066,80.078,-55.176,0.000,0
1644802678.113,-90.820,-4.883,86.426,-20.508,0.000,0
1644802678.117,-86.426,-23.438,98.145,8.301,0.000,0
1644802678.121,-86.914,-42.969,104.004,0.000,0.000,0
1644802678.125,-95.215,-37.598,104.980,-34.668,0.000,0
