timestamps,TP9,AF7,AF8,TP10,Right AUX, Marker
1639814478.217,-541.992,-29.297,-44.434,6.348,0.000,0
1639814478.221,774.902,-31.738,-49.316,50.293,0.000,0
1639814478.225,784.668,-36.621,-56.641,-45.898,0.000,0
1639814478.229,-490.723,-37.109,-44.922,-123.535,0.000,0
1639814478.232,-1000.000,-27.832,-37.109,-45.410,0.000,0
1639814478.236,-688.477,-26.855,-42.480,18.555,0.000,0
1639814478.240,570.312,-32.227,-49.316,71.777,0.000,0
1639814478.244,889.648,-28.809,-61.523,-19.043,0.000,0
1639814478.248,-368.652,-28.809,-63.965,-136.719,0.000,0
1639814478.252,-1000.000,-28.320,-51.270,-66.895,0.000,0
1639814478.255,-760.254,-22.461,-36.133,3.418,0.000,0
1639814478.259,450.195,-24.414,-32.715,55.664,0.000,0
1639814478.263,922.363,-49.316,-54.688,4.883,0.000,0
1639814478.268,-316.895,-50.293,-48.340,-102.539,0.000,0
1639814478.272,-1000.000,-32.715,-30.762,-65.430,0.000,1
1639814478.276,-830.078,-27.344,-36.133,-6.348,0.000,0
1639814478.280,274.902,-23.438,-36.621,44.434,0.000,0
1639814478.284,-921.875,-20.996,-43.457,0.000,0.000,0
1639814478.288,-47.363,-27.832,-39.062,-113.281,0.000,0
1639814478.291,-1000.000,-30.273,-40.039,-71.289,0.000,0
1639814478.295,-911.621,-24.414,-41.504,-6.836,0.000,0
1639814478.299,137.695,-21.973,-36.621,48.340,0.000,0
1639814478.303,-869.629,-27.832,-52.734,10.254,0.000,0
1639814478.307,172.363,-26.855,-46.875,-110.840,0.000,0
1639814478.311,-1000.000,-19.531,-33.691,-83.984,0.000,0
1639814478.319,-967.285,-29.297,-43.945,-21.973,0.000,0
1639814478.323,37.109,-29.297,-41.504,40.039,0.000,0
1639814478.327,-874.023,-30.762,-41.992,29.785,0.000,0
1639814478.331,336.914,-40.039,-49.805,-112.305,0.000,0
1639814478.335,-909.180,-40.039,-40.527,-112.305,0.000,0
1639814478.339,-1000.000,-34.180,-33.691,-23.926,0.000,0
1639814478.343,-212.891,-27.832,-51.758,46.387,0.000,0
1639814478.347,-972.168,-31.250,-57.617,45.410,0.000,0
1639814478.351,523.438,-27.344,-38.086,-86.426,0.000,0
1639814478.355,-768.066,-22.949,-26.855,-100.098,0.000,0
1639814478.359,-1000.000,-19.531,-27.832,-19.531,0.000,0
1639814478.363,-286.621,-20.020,-38.086,43.457,0.000,0
1639814478.385,976.074,-27.832,-54.688,53.711,0.000,0
1639814478.390,619.629,-30.273,-52.246,-65.918,0.000,0
1639814478.394,-660.645,-20.508,-33.691,-107.422,0.000,0
1639814478.398,-1000.000,-24.414,-30.273,-29.297,0.000,0
1639814478.403,-489.746,-32.227,-40.039,27.344,0.000,0
1639814478.407,809.082,-34.180,-51.758,60.547,0.000,0
1639814478.411,744.629,-38.574,-54.688,-39.551,0.000,0
1639814478.416,-534.668,-30.273,-38.086,-107.422,0.000,0
1639814478.420,-1000.000,-23.438,-23.438,-36.621,0.000,0
1639814478.425,-617.676,-27.344,-41.504,12.207,0.000,0
1639814478.429,645.996,-27.344,-46.875,54.199,0.000,0
1639814478.433,893.066,-23.438,-36.621,-15.625,0.000,0
1639814478.457,-355.469,-19.531,-27.344,-101.074,0.000,0
1639814478.461,-1000.000,-23.438,-31.250,-47.363,0.000,0
1639814478.466,-855.469,-26.367,-50.293,3.906,0.000,0
1639814478.471,344.727,-20.020,-52.734,30.273,0.000,0
1639814478.476,989.258,-18.555,-43.945,-42.480,0.000,0
1639814478.480,-258.301,-29.297,-41.016,-135.742,0.000,0
1639814478.485,-1000.000,-30.762,-34.180,-76.172,0.000,0
1639814478.490,-847.656,-19.043,-24.414,-2.930,0.000,0
1639814478.494,261.230,-19.043,-25.391,63.477,0.000,0
1639814478.499,-938.477,-19.043,-29.785,8.789,0.000,0
1639814478.504,-88.867,-19.531,-28.320,-93.750,0.000,0
1639814478.508,-1000.000,-25.391,-27.832,-46.387,0.000,0
1639814478.532,-917.480,-23.926,-24.902,4.395,0.000,0
1639814478.537,118.652,-18.066,-25.391,61.523,0.000,0
1639814478.542,-878.418,-16.113,-47.852,15.137,0.000,0
1639814478.547,102.051,-18.555,-48.828,-110.352,0.000,0
1639814478.552,-1000.000,-27.344,-39.551,-86.914,0.000,0
1639814478.556,-1000.000,-23.926,-43.457,-8.789,0.000,0
1639814478.561,-40.527,-10.254,-39.062,50.293,0.000,0
1639814478.566,-870.117,-11.719,-48.340,23.926,0.000,0
1639814478.571,267.578,-18.555,-50.781,-90.820,0.000,0
1639814478.576,-979.492,-17.578,-44.922,-84.473,0.000,0
1639814478.581,-1000.000,-4.395,-29.785,-24.414,0.000,0
1639814478.586,-47.852,-10.742,-23.438,41.504,0.000,0
1639814478.609,-914.062,-17.578,-33.203,54.199,0.000,0
1639814478.614,506.836,-17.090,-38.086,-70.312,0.000,0
1639814478.619,-767.578,-20.508,-27.344,-85.938,0.000,0
1639814478.624,-1000.000,-17.578,-17.090,-13.672,0.000,0
1639814478.629,-167.969,-19.043,-18.066,43.457,0.000,0
1639814478.635,-984.375,-27.832,-38.574,66.895,0.000,0
1639814478.640,637.695,-24.414,-41.992,-47.852,0.000,0
1639814478.645,-616.699,-13.184,-28.320,-95.703,0.000,0
1639814478.650,-1000.000,-10.254,-30.762,-30.273,0.000,0
1639814478.655,-344.238,-14.648,-36.133,24.902,0.000,0
1639814478.660,877.441,-25.391,-47.363,53.711,0.000,0
1639814478.666,793.457,-28.320,-54.688,-58.105,0.000,0
1639814478.679,-439.941,-28.320,-37.598,-122.070,0.000,0
1639814478.684,-1000.000,-24.414,-22.949,-37.109,0.000,0
1639814478.690,-503.906,-21.484,-33.203,12.695,0.000,0
1639814478.695,741.699,-21.973,-42.969,50.293,0.000,0
1639814478.700,895.996,-29.297,-49.805,-22.461,0.000,0
1639814478.705,-326.172,-26.367,-44.434,-108.887,0.000,0
1639814478.711,-1000.000,-20.020,-39.551,-50.781,0.000,0
1639814478.716,-687.500,-21.484,-40.039,1.953,0.000,0
1639814478.721,522.461,-16.602,-32.227,47.363,0.000,0
1639814478.726,-984.863,-13.184,-35.156,-18.555,0.000,0
1639814478.732,-167.969,-13.184,-38.086,-120.117,0.000,0
1639814478.737,-1000.000,-15.625,-30.273,-66.895,0.000,0
1639814478.743,-766.602,-16.113,-29.785,11.230,0.000,0
1639814478.748,327.148,-19.531,-34.668,73.730,0.000,0
1639814478.753,-924.316,-26.367,-43.945,6.348,0.000,0
1639814478.759,-31.250,-27.832,-37.598,-118.652,0.000,0
1639814478.764,-1000.000,-27.344,-30.762,-83.496,0.000,0
1639814478.769,-911.133,-26.367,-41.992,-12.695,0.000,0
1639814478.774,143.066,-25.879,-37.109,51.758,0.000,0
1639814478.780,-877.441,-20.996,-37.109,10.254,0.000,0
1639814478.785,107.910,-20.508,-47.363,-115.723,0.000,0
1639814478.790,-1000.000,-25.391,-39.551,-90.332,0.000,0
1639814478.795,-962.402,-15.137,-40.527,-20.020,0.000,0
1639814478.801,-3.418,-26.367,-54.688,57.617,0.000,0
1639814478.801,-883.301,-36.133,-57.129,39.551,0.000,0
1639814478.806,312.988,-25.879,-42.480,-102.539,0.000,0
1639814478.811,-941.895,-27.344,-34.668,-89.355,0.000,0
1639814478.816,-1000.000,-25.879,-35.156,-6.836,0.000,0
1639814478.821,-88.379,-16.602,-40.039,51.758,0.000,0
1639814478.827,-901.855,-12.695,-48.828,43.457,0.000,0
1639814478.832,438.477,-26.367,-59.082,-87.891,0.000,0
1639814478.837,-839.844,-34.180,-48.340,-107.422,0.000,0
1639814478.842,-1000.000,-23.926,-31.250,-28.320,0.000,0
1639814478.847,-166.504,-18.066,-36.621,18.066,0.000,0
1639814478.853,-971.191,-34.180,-43.457,22.949,0.000,0
1639814478.858,622.070,-39.062,-38.574,-82.031,0.000,0
1639814478.853,-644.531,-20.508,-35.645,-121.582,0.000,0
1639814478.858,-1000.000,-13.672,-33.203,-45.898,0.000,0
1639814478.863,-330.078,-14.160,-29.297,19.043,0.000,0
1639814478.868,927.246,-14.648,-40.527,53.711,0.000,0
1639814478.873,704.590,-17.578,-47.363,-41.504,0.000,0
1639814478.879,-553.711,-23.926,-41.504,-105.957,0.000,0
1639814478.884,-1000.000,-39.551,-51.758,-28.809,0.000,0
1639814478.889,-633.301,-32.715,-43.945,31.738,0.000,0
1639814478.894,687.012,-20.996,-27.344,51.758,0.000,0
1639814478.899,891.602,-27.344,-49.805,-47.852,0.000,0
1639814478.904,-359.375,-28.320,-52.246,-130.859,0.000,0
1639814478.909,-1000.000,-27.832,-41.504,-68.359,0.000,0
1639814478.900,-682.617,-25.879,-40.039,-1.465,0.000,0
1639814478.905,538.574,-23.438,-35.156,55.664,0.000,0
1639814478.911,976.562,-15.137,-40.039,-22.949,0.000,0
1639814478.916,-230.957,-17.090,-37.109,-123.535,0.000,0
1639814478.921,-1000.000,-18.066,-34.180,-62.500,0.000,0
1639814478.926,-834.961,-22.949,-29.785,-1.953,0.000,0
1639814478.931,295.898,-31.738,-26.855,57.129,0.000,0
1639814478.936,-943.848,-28.320,-41.992,2.930,0.000,0
1639814478.941,-89.355,-24.414,-43.457,-116.211,0.000,0
1639814478.946,-1000.000,-27.344,-38.086,-69.824,0.000,0
1639814478.951,-884.766,-28.809,-40.039,-12.207,0.000,0
1639814478.956,186.035,-19.043,-44.434,41.504,0.000,0
1639814478.944,-875.977,-20.508,-41.992,6.836,0.000,0
1639814478.949,82.520,-39.062,-44.434,-95.703,0.000,0
1639814478.954,-1000.000,-43.457,-53.711,-47.852,0.000,0
1639814478.959,-920.898,-28.809,-38.086,0.488,0.000,0
1639814478.964,111.816,-18.066,-37.109,40.527,0.000,0
1639814478.968,-864.258,-21.973,-55.664,17.090,0.000,0
1639814478.973,249.023,-26.855,-57.129,-102.051,0.000,0
1639814478.978,-983.887,-29.785,-45.898,-88.379,0.000,0
1639814478.983,-985.352,-32.715,-34.668,-27.344,0.000,0
1639814478.988,-1.465,-30.762,-35.645,31.738,0.000,0
1639814478.993,-884.766,-35.156,-45.898,35.645,0.000,0
1639814478.998,418.945,-32.715,-51.270,-84.961,0.000,0
1639814478.984,-869.629,-24.414,-42.480,-96.191,0.000,0
1639814478.988,-1000.000,-34.180,-40.039,-28.809,0.000,0
1639814478.993,-173.340,-28.809,-42.969,34.180,0.000,0
1639814478.998,-960.938,-24.414,-48.340,46.875,0.000,0
1639814479.003,568.848,-34.668,-59.570,-79.102,0.000,0
1639814479.008,-704.590,-33.691,-57.129,-115.723,0.000,0
1639814479.012,-1000.000,-31.738,-41.016,-42.480,0.000,0
1639814479.017,-437.500,-34.180,-39.062,15.625,0.000,0
1639814479.022,883.301,-41.016,-49.316,46.387,0.000,0
1639814479.027,648.438,-46.875,-60.547,-59.082,0.000,0
1639814479.032,-630.859,-42.480,-49.805,-127.930,0.000,0
1639814479.037,-1000.000,-37.109,-44.922,-62.012,0.000,0
1639814479.020,-625.000,-39.551,-53.223,15.625,0.000,0
1639814479.025,634.277,-34.180,-61.523,69.336,0.000,0
1639814479.030,842.285,-34.180,-55.664,-41.016,0.000,0
1639814479.034,-419.922,-36.133,-38.574,-125.488,0.000,0
1639814479.039,-1000.000,-42.480,-36.621,-39.551,0.000,0
1639814479.044,-812.500,-52.734,-49.805,20.996,0.000,0
1639814479.048,425.293,-30.273,-40.039,58.594,0.000,0
1639814479.053,966.309,-31.250,-37.598,-19.043,0.000,0
1639814479.058,-291.504,-56.641,-56.641,-120.117,0.000,0
1639814479.062,-1000.000,-41.504,-51.270,-60.547,0.000,0
1639814479.067,-792.480,-28.809,-39.062,-9.277,0.000,0
1639814479.072,384.277,-42.969,-47.363,42.969,0.000,0
1639814479.054,974.121,-50.781,-60.059,0.488,0.000,1
1639814479.059,-244.141,-41.992,-44.922,-107.910,0.000,0
1639814479.063,-1000.000,-21.484,-25.879,-83.008,0.000,0
1639814479.068,-885.254,-22.461,-34.668,-25.391,0.000,0
1639814479.073,158.691,-34.180,-50.293,61.523,0.000,0
1639814479.077,-905.273,-36.133,-57.129,22.461,0.000,0
1639814479.082,16.113,-32.715,-47.852,-116.699,0.000,0
1639814479.086,-1000.000,-34.180,-39.551,-82.520,0.000,0
1639814479.091,-1000.000,-37.598,-39.062,-2.930,0.000,0
1639814479.095,-8.301,-30.762,-26.367,46.387,0.000,0
1639814479.100,-845.703,-26.855,-35.645,1.465,0.000,0
1639814479.105,217.285,-36.133,-59.570,-111.328,0.000,0
1639814479.089,-1000.000,-46.875,-64.453,-92.285,0.000,0
1639814479.093,-1000.000,-34.668,-41.016,-28.809,0.000,0
1639814479.098,-32.227,-26.367,-23.926,32.715,0.000,0
1639814479.102,-888.672,-41.992,-44.922,45.410,0.000,0
1639814479.107,292.969,-48.340,-54.199,-76.172,0.000,0
1639814479.111,-937.500,-34.180,-31.250,-93.262,0.000,0
1639814479.116,-1000.000,-26.855,-26.367,-21.973,0.000,0
1639814479.120,-253.418,-38.574,-42.969,27.832,0.000,0
1639814479.124,993.164,-29.785,-51.270,43.945,0.000,0
1639814479.129,570.801,-17.090,-44.434,-81.055,0.000,0
1639814479.133,-724.121,-31.738,-43.457,-123.535,0.000,0
1639814479.138,-1000.000,-27.832,-34.668,-45.410,0.000,0
1639814479.124,-351.562,-18.555,-31.738,18.555,0.000,0
1639814479.128,935.059,-25.879,-51.758,45.898,0.000,0
1639814479.133,682.129,-36.133,-49.316,-57.129,0.000,0
1639814479.137,-609.863,-37.598,-28.809,-113.770,0.000,0
1639814479.141,-1000.000,-36.621,-27.832,-24.414,0.000,0
1639814479.146,-528.809,-41.016,-27.832,36.133,0.000,0
1639814479.150,728.516,-40.039,-42.480,64.941,0.000,0
1639814479.155,768.066,-43.945,-56.152,-22.461,0.000,0
1639814479.159,-495.605,-41.016,-36.133,-125.488,0.000,0
1639814479.163,-1000.000,-32.715,-22.949,-56.641,0.000,0
1639814479.168,-702.148,-27.832,-32.227,17.090,0.000,0
1639814479.172,529.297,-29.297,-35.645,60.059,0.000,0
1639814479.160,947.754,-30.762,-34.668,-24.414,0.000,0
1639814479.164,-293.945,-29.785,-39.062,-126.953,0.000,0
1639814479.168,-1000.000,-28.809,-36.621,-51.758,0.000,0
1639814479.172,-775.391,-31.250,-31.250,12.207,0.000,0
1639814479.177,393.555,-35.156,-29.785,55.176,0.000,0
1639814479.181,-983.398,-32.227,-49.316,-9.277,0.000,0
1639814479.185,-181.641,-33.691,-51.758,-109.863,0.000,0
1639814479.190,-1000.000,-27.832,-35.645,-47.363,0.000,0
1639814479.194,-849.609,-17.578,-37.598,-1.465,0.000,0
1639814479.198,232.422,-21.973,-39.551,37.109,0.000,0
1639814479.203,-899.902,-29.785,-49.805,-11.230,0.000,0
1639814479.207,22.949,-32.227,-49.805,-127.441,0.000,0
1639814479.197,-1000.000,-35.645,-47.363,-102.051,0.000,0
1639814479.202,-955.566,-34.668,-54.199,-42.969,0.000,0
1639814479.206,51.758,-29.785,-50.781,9.277,0.000,0
1639814479.210,-870.605,-25.391,-46.875,-3.906,0.000,0
1639814479.214,149.902,-21.484,-47.852,-120.605,0.000,0
1639814479.219,-1000.000,-31.250,-47.363,-114.258,0.000,0
1639814479.223,-1000.000,-40.527,-41.016,-38.574,0.000,0
1639814479.227,-125.977,-29.297,-29.785,31.738,0.000,0
1639814479.231,-874.512,-25.391,-38.574,22.949,0.000,0
1639814479.236,351.074,-41.504,-54.199,-107.422,0.000,0
1639814479.240,-925.293,-38.086,-50.293,-103.027,0.000,0
1639814479.244,-1000.000,-31.250,-39.551,-25.391,0.000,0
1639814479.235,-145.020,-34.180,-39.062,44.922,0.000,0
1639814479.240,-943.848,-30.273,-46.875,52.246,0.000,0
1639814479.244,544.922,-28.320,-48.340,-81.055,0.000,0
1639814479.248,-722.656,-31.250,-34.668,-101.562,0.000,0
1639814479.252,-1000.000,-34.668,-34.180,-25.879,0.000,0
1639814479.257,-407.715,-27.344,-50.293,38.086,0.000,0
1639814479.261,890.137,-17.090,-47.363,77.637,0.000,0
1639814479.265,661.621,-21.484,-42.480,-51.758,0.000,0
1639814479.269,-616.699,-24.414,-40.039,-117.188,0.000,0
1639814479.273,-1000.000,-29.297,-39.551,-33.691,0.000,0
1639814479.278,-576.172,-25.879,-38.574,20.508,0.000,0
1639814479.282,763.184,-11.230,-33.203,51.758,0.000,0
1639814479.274,803.223,-20.996,-39.551,-51.758,0.000,0
1639814479.278,-477.051,-35.156,-40.527,-132.812,0.000,0
1639814479.282,-1000.000,-36.621,-44.434,-47.363,0.000,0
1639814479.287,-647.461,-37.109,-35.645,5.859,0.000,0
1639814479.291,588.867,-36.133,-34.180,39.062,0.000,0
1639814479.295,881.348,-33.691,-44.922,-38.574,0.000,0
1639814479.299,-340.820,-41.504,-31.250,-124.512,0.000,0
1639814479.303,-1000.000,-40.039,-29.785,-63.965,0.000,0
1639814479.307,-807.617,-24.902,-45.410,-6.836,0.000,0
1639814479.312,327.637,-25.391,-57.617,49.805,0.000,0
1639814479.316,-961.914,-18.066,-53.711,-26.855,0.000,0
1639814479.320,-111.328,-18.066,-37.598,-138.672,0.000,0
1639814479.313,-1000.000,-29.785,-43.457,-73.730,0.000,0
1639814479.317,-812.012,-23.926,-35.645,2.930,0.000,0
1639814479.321,297.363,-19.043,-25.391,63.477,0.000,0
1639814479.325,-905.762,-26.855,-40.527,14.160,0.000,0
1639814479.330,6.836,-33.203,-44.434,-93.750,0.000,0
1639814479.334,-1000.000,-29.297,-33.691,-58.105,0.000,0
1639814479.338,-914.551,-30.273,-24.414,-11.230,0.000,0
1639814479.342,146.484,-27.832,-25.879,37.109,0.000,0
1639814479.346,-900.879,-38.086,-46.387,18.066,0.000,0
1639814479.350,115.723,-42.480,-53.223,-101.074,0.000,0
1639814479.354,-1000.000,-25.391,-49.805,-91.797,0.000,0
1639814479.358,-961.914,-23.438,-46.387,-23.926,0.000,0
1639814479.352,13.184,-24.414,-39.551,42.969,0.000,0
1639814479.356,-883.789,-29.785,-42.969,43.457,0.000,0
1639814479.361,362.305,-30.762,-30.762,-81.543,0.000,0
1639814479.365,-895.020,-32.715,-23.926,-84.473,0.000,0
1639814479.369,-1000.000,-38.574,-39.551,-5.859,0.000,0
1639814479.373,-173.340,-24.414,-35.156,47.363,0.000,0
1639814479.377,-940.918,-17.578,-29.297,44.922,0.000,0
1639814479.381,478.516,-28.809,-51.270,-70.312,0.000,0
1639814479.385,-820.801,-29.785,-46.387,-90.820,0.000,0
1639814479.389,-1000.000,-21.484,-21.484,-32.715,0.000,0
1639814479.393,-279.297,-26.855,-20.996,18.066,0.000,0
1639814479.397,961.426,-36.133,-35.156,62.012,0.000,0
1639814479.392,657.715,-29.297,-35.645,-59.082,0.000,0
1639814479.396,-612.305,-22.461,-24.902,-127.930,0.000,0
1639814479.400,-1000.000,-17.578,-20.508,-43.945,0.000,0
1639814479.404,-510.742,-23.438,-29.297,15.137,0.000,0
1639814479.408,781.738,-26.367,-45.898,62.500,0.000,0
1639814479.412,766.113,-30.762,-65.430,-26.855,0.000,0
1639814479.416,-502.441,-30.762,-57.617,-106.934,0.000,0
1639814479.420,-1000.000,-38.086,-44.922,-25.391,0.000,0
1639814479.425,-667.480,-39.062,-38.086,35.156,0.000,0
1639814479.429,624.023,-22.949,-24.414,63.477,0.000,0
1639814479.433,909.180,-27.344,-27.832,-20.508,0.000,0
1639814479.437,-349.609,-31.250,-31.250,-113.281,0.000,0
1639814479.432,-1000.000,-36.133,-29.297,-59.082,0.000,0
1639814479.436,-750.488,-36.133,-23.438,-0.977,0.000,0
1639814479.440,433.105,-32.715,-37.109,57.129,0.000,0
1639814479.444,-986.816,-32.227,-51.270,-5.859,0.000,0
1639814479.448,-179.688,-21.484,-38.086,-112.305,0.000,0
1639814479.452,-1000.000,-22.949,-30.273,-48.828,0.000,0
1639814479.456,-871.582,-34.668,-40.039,16.113,0.000,0
1639814479.460,201.172,-33.691,-42.480,70.312,0.000,0
1639814479.464,-912.109,-25.391,-33.203,4.395,0.000,0
1639814479.468,-0.488,-21.973,-33.691,-131.836,0.000,0
1639814479.472,-1000.000,-24.902,-30.762,-76.660,0.000,0
1639814479.476,-916.504,-21.484,-32.227,-3.906,0.000,0
1639814479.473,139.648,-19.043,-28.809,43.945,0.000,0
1639814479.477,-870.605,-22.461,-30.762,17.578,0.000,0
1639814479.481,102.539,-16.113,-41.016,-96.191,0.000,0
1639814479.485,-1000.000,-5.371,-33.203,-84.961,0.000,0
1639814479.489,-1000.000,-3.418,-26.367,-2.930,0.000,0
1639814479.493,-41.016,0.000,-27.832,64.941,0.000,0
1639814479.497,-901.367,-11.230,-38.574,47.852,0.000,0
1639814479.501,212.402,-17.578,-32.715,-70.312,0.000,0
1639814479.505,-956.543,0.000,-5.371,-81.543,0.000,0
1639814479.509,-1000.000,-5.371,-13.672,-2.930,0.000,0
1639814479.513,-204.102,-8.789,-30.273,61.523,0.000,0
1639814479.517,-942.871,-9.277,-37.109,41.504,0.000,0
1639814479.513,469.727,-12.207,-40.527,-83.008,0.000,0
1639814479.517,-810.547,-16.113,-32.227,-96.191,0.000,0
1639814479.521,-1000.000,-23.926,-25.879,-23.438,0.000,0
1639814479.525,-340.820,-10.742,-24.414,48.828,0.000,0
1639814479.529,976.562,-10.254,-25.879,73.242,0.000,0
1639814479.533,563.477,-27.832,-33.691,-37.598,0.000,0
1639814479.537,-737.305,-15.625,-39.551,-77.148,0.000,0
1639814479.541,-1000.000,4.395,-23.438,-18.066,0.000,0
1639814479.545,-499.023,0.000,-15.625,31.738,0.000,0
1639814479.549,812.012,-11.719,-33.691,73.730,0.000,0
1639814479.553,757.324,-13.184,-43.457,-26.367,0.000,0
1639814479.557,-517.090,-9.277,-39.062,-104.980,0.000,0
1639814479.555,-1000.000,-4.395,-30.762,-25.879,0.000,0
1639814479.559,-683.105,-10.254,-19.043,30.273,0.000,0
1639814479.563,582.520,-12.695,-16.113,70.312,0.000,0
1639814479.567,916.504,-4.883,-21.973,-25.391,0.000,0
1639814479.571,-327.637,-15.137,-26.855,-126.465,0.000,0
1639814479.575,-1000.000,-31.738,-40.527,-34.668,0.000,0
1639814479.579,-714.355,-19.043,-34.180,20.020,0.000,0
1639814479.583,494.141,-6.348,-23.438,56.641,0.000,0
1639814479.587,-979.980,-14.648,-35.156,-11.719,0.000,0
1639814479.591,-168.457,-24.902,-44.922,-112.305,0.000,0
1639814479.595,-1000.000,-26.855,-36.133,-56.152,0.000,0
1639814479.599,-726.562,-10.254,-18.066,6.348,0.000,0
1639814479.597,394.531,-5.859,-18.555,74.219,0.000,0
1639814479.601,-908.691,-11.719,-30.762,29.297,0.000,0
1639814479.605,65.918,-7.812,-37.109,-88.867,0.000,0
1639814479.609,-1000.000,-15.625,-34.180,-64.453,0.000,0
1639814479.613,-869.629,-23.926,-33.691,0.977,0.000,0
1639814479.617,207.520,-20.996,-44.922,56.641,0.000,0
1639814479.621,-876.465,-21.484,-48.828,12.207,0.000,0
1639814479.625,179.688,-20.020,-42.480,-106.934,0.000,0
1639814479.629,-1000.000,-21.484,-43.945,-89.355,0.000,0
1639814479.633,-982.910,-26.367,-47.852,-8.301,0.000,0
1639814479.637,51.758,-10.254,-30.273,48.828,0.000,0
1639814479.641,-857.910,-8.789,-31.738,11.230,0.000,0
1639814479.640,302.734,-20.996,-39.062,-107.422,0.000,0
1639814479.643,-949.707,-17.578,-23.926,-85.938,0.000,0
1639814479.647,-1000.000,-24.414,-23.926,-10.254,0.000,0
1639814479.651,-79.590,-22.949,-30.762,35.156,0.000,0
1639814479.655,-903.320,-20.508,-40.527,27.344,0.000,0
1639814479.659,403.809,-24.414,-51.758,-107.910,0.000,0
1639814479.663,-850.586,-19.043,-39.062,-136.230,0.000,0
1639814479.667,-1000.000,-22.461,-35.156,-57.617,0.000,0
1639814479.671,-458.984,-30.762,-43.457,15.625,0.000,0
1639814479.675,883.301,-24.902,-50.293,37.109,0.000,0
1639814479.679,598.145,-17.090,-49.316,-80.566,0.000,0
1639814479.683,-716.309,-26.855,-34.180,-124.023,0.000,0
1639814479.682,-1000.000,-33.203,-27.832,-47.363,0.000,0
1639814479.686,-500.488,-25.879,-34.180,13.672,0.000,0
1639814479.690,826.172,-25.879,-37.598,62.988,0.000,0
1639814479.694,730.957,-37.109,-53.711,-31.738,0.000,0
1639814479.698,-562.988,-35.645,-53.711,-106.445,0.000,0
1639814479.702,-1000.000,-31.250,-39.551,-38.086,0.000,0
1639814479.706,-643.555,-29.297,-31.738,12.207,0.000,0
1639814479.709,638.672,-34.668,-37.109,57.129,0.000,0
1639814479.713,846.680,-45.410,-56.641,-19.043,0.000,0
1639814479.717,-397.949,-28.809,-41.992,-97.656,0.000,0
1639814479.721,-1000.000,-19.043,-25.879,-34.668,0.000,0
1639814479.725,-737.793,-26.367,-31.250,2.441,0.000,0
1639814479.725,463.867,-23.926,-25.391,49.316,0.000,0
1639814479.729,-987.793,-26.855,-26.367,-13.184,0.000,0
1639814479.732,-170.898,-31.250,-40.039,-117.188,0.000,0
1639814479.736,-1000.000,-21.484,-37.109,-71.777,0.000,0
1639814479.740,-755.859,-17.578,-35.156,-4.395,0.000,0
1639814479.744,392.578,-25.391,-41.992,61.035,0.000,0
1639814479.748,-942.383,-28.809,-49.316,-13.184,0.000,0
1639814479.752,-69.336,-39.062,-59.570,-118.652,0.000,0
1639814479.756,-1000.000,-34.668,-41.992,-62.988,0.000,0
1639814479.760,-859.863,-26.367,-8.301,-18.555,0.000,0
1639814479.764,205.566,-32.227,-15.137,40.039,0.000,0
1639814479.768,-875.000,-30.762,-41.504,13.184,0.000,0
1639814479.767,136.230,-38.086,-40.527,-107.910,0.000,0
1639814479.771,-1000.000,-41.016,-38.086,-98.145,0.000,0
1639814479.775,-984.375,-36.133,-43.457,-24.902,0.000,0
1639814479.779,8.789,-29.785,-34.668,42.480,0.000,0
1639814479.783,-868.652,-31.738,-33.203,9.277,0.000,0
1639814479.787,270.020,-39.062,-46.387,-102.051,0.000,0
1639814479.791,-957.520,-37.598,-46.875,-85.449,0.000,0
1639814479.795,-1000.000,-33.691,-40.527,-11.230,0.000,0
1639814479.799,-131.836,-26.855,-32.227,51.758,0.000,0
1639814479.802,-890.625,-27.832,-33.691,47.852,0.000,0
1639814479.806,424.805,-38.086,-39.062,-95.703,0.000,0
1639814479.810,-857.910,-34.180,-26.855,-122.559,0.000,0
1639814479.810,-1000.000,-21.973,-14.160,-48.828,0.000,0
1639814479.814,-237.793,-20.996,-15.137,14.648,0.000,0
1639814479.818,-989.258,-27.344,-36.133,49.316,0.000,0
1639814479.822,596.191,-27.344,-44.434,-67.871,0.000,0
1639814479.826,-677.246,-26.367,-35.645,-110.352,0.000,0
1639814479.830,-1000.000,-33.691,-42.480,-27.344,0.000,0
1639814479.834,-530.273,-37.598,-45.898,28.809,0.000,0
1639814479.837,775.391,-29.297,-40.527,63.965,0.000,0
1639814479.841,756.836,-25.879,-45.410,-46.875,0.000,0
1639814479.845,-524.902,-28.809,-38.086,-112.305,0.000,0
1639814479.849,-1000.000,-32.227,-25.879,-31.738,0.000,0
1639814479.853,-612.305,-33.691,-30.273,18.066,0.000,0
1639814479.853,682.617,-34.668,-35.645,54.199,0.000,0
1639814479.857,855.469,-40.527,-33.691,-21.484,0.000,0
1639814479.861,-418.457,-29.785,-21.484,-108.398,0.000,0
1639814479.865,-1000.000,-22.949,-22.949,-47.363,0.000,0
1639814479.869,-720.215,-22.949,-29.297,3.418,0.000,0
1639814479.872,507.324,-28.809,-51.270,59.570,0.000,0
1639814479.876,902.832,-39.551,-74.219,-4.395,0.000,0
1639814479.880,-336.914,-37.109,-47.852,-112.793,0.000,0
1639814479.884,-1000.000,-30.762,-26.367,-68.848,0.000,0
1639814479.888,-840.332,-29.785,-27.344,-20.508,0.000,0
1639814479.892,277.832,-26.855,-33.691,31.738,0.000,0
1639814479.896,-941.895,-26.367,-36.133,-15.137,0.000,0
1639814479.896,-95.703,-30.273,-33.203,-125.977,0.000,0
1639814479.900,-1000.000,-40.039,-33.203,-84.473,0.000,0
1639814479.904,-887.695,-41.504,-31.738,-8.789,0.000,0
1639814479.908,182.617,-27.832,-30.273,46.387,0.000,0
1639814479.911,-893.555,-32.227,-50.781,5.371,0.000,0
1639814479.915,17.090,-54.199,-59.570,-99.121,0.000,0
1639814479.919,-1000.000,-46.387,-39.551,-85.449,0.000,0
1639814479.923,-958.496,-25.879,-34.180,-35.156,0.000,0
1639814479.927,48.828,-23.438,-45.898,36.621,0.000,0
1639814479.931,-888.184,-40.039,-63.477,23.438,0.000,0
1639814479.935,160.156,-39.062,-54.199,-92.773,0.000,0
1639814479.939,-993.652,-24.902,-29.785,-102.539,0.000,0
1639814479.940,-1000.000,-26.367,-25.391,-36.133,0.000,0
1639814479.944,-125.977,-29.785,-32.227,41.992,0.000,0
1639814479.948,-902.832,-30.762,-36.133,32.715,0.000,0
1639814479.952,419.922,-29.785,-44.922,-96.680,0.000,0
1639814479.956,-841.797,-32.715,-47.852,-112.305,0.000,0
1639814479.959,-1000.000,-36.133,-39.062,-31.738,0.000,0
1639814479.963,-312.012,-32.715,-33.203,31.250,0.000,1
1639814479.967,-992.188,-36.621,-37.109,38.086,0.000,0
1639814479.971,547.852,-39.551,-46.875,-65.430,0.000,0
1639814479.975,-763.184,-28.809,-55.664,-83.496,0.000,0
1639814479.979,-1000.000,-25.879,-46.387,-12.207,0.000,0
1639814479.983,-393.066,-19.043,-33.691,29.785,0.000,0
1639814479.984,894.531,-13.184,-37.598,58.594,0.000,0
1639814479.988,696.289,-20.996,-37.109,-38.574,0.000,0
1639814479.992,-582.031,-20.508,-31.250,-101.074,0.000,0
1639814479.996,-1000.000,-17.578,-26.367,-41.016,0.000,0
1639814480.000,-616.211,-21.484,-32.715,16.113,0.000,0
1639814480.003,664.062,-26.367,-46.875,81.543,0.000,0
1639814480.007,857.910,-30.273,-47.852,-4.883,0.000,0
1639814480.011,-395.996,-26.855,-30.762,-104.004,0.000,0
1639814480.015,-1000.000,-36.621,-31.738,-28.320,0.000,0
1639814480.019,-729.980,-36.621,-40.039,14.648,0.000,0
1639814480.023,514.648,-26.367,-32.715,49.805,0.000,0
1639814480.027,966.797,-28.809,-40.527,-7.324,0.000,0
1639814480.028,-270.020,-28.320,-43.457,-118.164,0.000,0
1639814480.032,-1000.000,-28.320,-29.785,-78.613,0.000,0
1639814480.036,-789.551,-25.391,-26.367,-25.879,0.000,0
1639814480.040,361.816,-24.414,-38.574,47.852,0.000,0
1639814480.044,-964.844,-32.227,-49.316,5.859,0.000,0
1639814480.048,-145.020,-39.062,-48.828,-112.793,0.000,0
1639814480.051,-1000.000,-46.387,-48.340,-75.684,0.000,0
1639814480.055,-918.457,-51.758,-40.039,-10.742,0.000,0
1639814480.059,104.980,-41.504,-40.039,51.758,0.000,0
1639814480.063,-888.184,-27.344,-47.363,0.488,0.000,0
1639814480.067,71.777,-26.367,-39.551,-119.141,0.000,0
1639814480.071,-1000.000,-29.297,-36.621,-79.590,0.000,0
1639814480.072,-945.312,-26.855,-30.762,-12.207,0.000,0
1639814480.076,72.754,-17.090,-32.715,48.828,0.000,0
1639814480.080,-860.352,-17.578,-48.340,28.809,0.000,0
1639814480.084,193.359,-32.227,-54.688,-99.121,0.000,0
1639814480.088,-994.629,-38.574,-55.664,-88.867,0.000,0
1639814480.092,-1000.000,-39.551,-48.340,-12.695,0.000,0
1639814480.096,-139.648,-35.156,-34.180,39.062,0.000,0
1639814480.099,-907.715,-37.109,-49.316,37.598,0.000,0
1639814480.103,331.055,-35.156,-45.898,-87.891,0.000,0
1639814480.107,-894.531,-25.391,-16.113,-125.488,0.000,0
1639814480.111,-1000.000,-26.367,-22.949,-37.109,0.000,0
1639814480.115,-273.926,-30.273,-39.062,32.715,0.000,0
1639814480.117,-982.910,-27.344,-45.898,50.293,0.000,0
1639814480.121,552.246,-30.273,-57.129,-67.871,0.000,0
1639814480.124,-735.840,-30.762,-51.758,-105.957,0.000,0
1639814480.128,-1000.000,-20.508,-27.832,-38.086,0.000,0
1639814480.132,-408.203,-20.508,-21.973,11.230,0.000,0
1639814480.136,906.250,-34.180,-35.156,49.805,0.000,0
1639814480.140,658.203,-31.250,-49.805,-47.363,0.000,0
1639814480.144,-647.949,-27.344,-51.270,-106.934,0.000,0
1639814480.148,-1000.000,-27.832,-38.086,-56.152,0.000,0
1639814480.151,-549.316,-28.320,-26.367,1.465,0.000,0
1639814480.155,732.910,-31.738,-40.527,61.523,0.000,0
1639814480.159,840.332,-29.785,-58.105,-29.785,0.000,0
1639814480.161,-414.062,-23.438,-47.363,-122.070,0.000,0
1639814480.165,-1000.000,-22.949,-47.852,-61.523,0.000,0
1639814480.169,-737.305,-23.438,-37.598,-5.371,0.000,0
1639814480.172,497.070,-18.555,-29.297,53.711,0.000,0
1639814480.176,960.938,-17.578,-36.621,-14.648,0.000,0
1639814480.180,-280.273,-22.949,-38.574,-120.605,0.000,0
1639814480.184,-1000.000,-31.738,-51.758,-62.988,0.000,0
1639814480.188,-802.734,-26.855,-53.223,6.836,0.000,0
1639814480.192,357.422,-19.531,-29.297,45.898,0.000,0
1639814480.196,-956.543,-32.715,-36.133,-32.715,0.000,0
1639814480.199,-132.812,-40.527,-43.457,-143.066,0.000,0
1639814480.203,-1000.000,-25.391,-27.832,-90.332,0.000,0
1639814480.205,-849.121,-20.508,-28.809,-21.973,0.000,0
1639814480.209,230.469,-27.832,-41.504,42.969,0.000,0
1639814480.213,-887.207,-25.879,-38.086,10.254,0.000,0
1639814480.217,61.035,-25.391,-34.180,-106.934,0.000,0
1639814480.221,-1000.000,-20.020,-33.203,-84.961,0.000,0
1639814480.224,-972.656,-19.043,-33.691,-14.160,0.000,0
1639814480.228,-11.719,-30.273,-46.387,62.988,0.000,0
1639814480.232,-877.441,-18.066,-35.645,39.062,0.000,0
1639814480.236,260.254,-19.531,-24.902,-81.055,0.000,0
1639814480.240,-982.910,-37.109,-33.203,-75.195,0.000,0
1639814480.244,-998.047,-35.645,-32.715,-14.160,0.000,0
1639814480.247,-28.809,-36.133,-36.133,44.434,0.000,0
1639814480.249,-884.766,-32.227,-48.828,33.203,0.000,0
1639814480.253,364.258,-28.320,-54.199,-81.543,0.000,0
1639814480.257,-907.715,-23.926,-44.434,-94.727,0.000,0
1639814480.261,-1000.000,-20.996,-23.926,-37.109,0.000,0
1639814480.265,-166.504,-30.762,-28.809,26.855,0.000,0
1639814480.269,-953.125,-38.574,-60.547,49.316,0.000,0
1639814480.272,526.367,-34.180,-63.965,-65.918,0.000,0
1639814480.276,-745.605,-22.461,-40.527,-101.074,0.000,0
1639814480.280,-1000.000,-16.602,-22.461,-32.227,0.000,0
1639814480.284,-448.242,-26.855,-34.180,25.879,0.000,0
1639814480.288,849.121,-38.574,-47.852,44.922,0.000,0
1639814480.292,714.844,-28.809,-37.109,-68.359,0.000,0
1639814480.294,-570.801,-22.949,-32.715,-117.188,0.000,0
1639814480.298,-1000.000,-35.645,-33.203,-41.992,0.000,0
1639814480.302,-500.000,-34.668,-37.109,9.766,0.000,0
1639814480.306,788.574,-26.367,-44.922,51.758,0.000,0
1639814480.310,817.383,-31.250,-62.012,-29.297,0.000,0
1639814480.314,-475.098,-35.645,-57.129,-101.074,0.000,0
1639814480.317,-1000.000,-31.250,-42.969,-31.738,0.000,0
1639814480.321,-637.207,-30.273,-44.434,31.738,0.000,0
1639814480.325,524.902,-24.902,-49.805,78.613,0.000,0
1639814480.329,934.570,-22.949,-51.270,-1.953,0.000,0
1639814480.333,-297.363,-23.438,-25.879,-115.723,0.000,0
1639814480.337,-1000.000,-19.043,-15.137,-59.082,0.000,0
1639814480.340,-812.500,-21.973,-27.832,5.371,0.000,0
1639814480.343,344.238,-27.832,-40.039,62.988,0.000,0
1639814480.347,-965.332,-23.926,-43.457,0.977,0.000,0
1639814480.351,-155.273,-25.391,-31.738,-117.188,0.000,0
1639814480.355,-1000.000,-27.832,-28.320,-54.199,0.000,0
1639814480.359,-870.117,-26.855,-29.785,26.367,0.000,0
1639814480.363,186.523,-17.578,-29.785,82.031,0.000,0
1639814480.366,-892.578,-14.160,-35.156,27.832,0.000,0
1639814480.370,-4.395,-25.879,-46.875,-87.891,0.000,0
1639814480.374,-1000.000,-21.973,-39.551,-54.199,0.000,0
1639814480.378,-901.367,-24.902,-17.090,-2.441,0.000,0
1639814480.382,96.680,-33.203,-20.996,59.570,0.000,0
1639814480.385,-862.793,-24.414,-33.203,35.645,0.000,0
1639814480.389,224.121,-25.391,-35.156,-81.543,0.000,0
1639814480.392,-980.469,-22.949,-24.902,-76.172,0.000,0
1639814480.396,-1000.000,-19.043,-25.879,-20.020,0.000,0
1639814480.400,-99.121,-15.137,-23.926,38.574,0.000,0
1639814480.404,-886.230,-18.555,-26.855,28.809,0.000,0
1639814480.408,314.453,-35.645,-35.645,-94.238,0.000,0
1639814480.412,-932.129,-40.039,-41.016,-100.098,0.000,0
1639814480.415,-1000.000,-34.180,-57.129,-20.508,0.000,0
1639814480.419,-247.559,-24.902,-48.340,29.785,0.000,0
1639814480.423,-937.988,-21.484,-33.203,39.551,0.000,0
1639814480.427,462.402,-24.414,-39.551,-72.266,0.000,0
1639814480.430,-821.289,-25.391,-32.227,-114.746,0.000,0
1639814480.434,-1000.000,-27.832,-22.949,-51.270,0.000,0
1639814480.437,-449.707,-30.273,-37.109,13.672,0.000,0
1639814480.441,895.508,-33.691,-39.062,50.293,0.000,0
1639814480.445,657.227,-31.738,-24.902,-68.848,0.000,0
1639814480.449,-651.855,-30.273,-31.250,-122.070,0.000,0
1639814480.453,-1000.000,-26.855,-32.715,-39.062,0.000,0
1639814480.457,-631.836,-24.902,-41.016,12.207,0.000,0
1639814480.460,658.691,-24.414,-41.992,55.176,0.000,0
1639814480.464,824.707,-21.484,-31.738,-46.875,0.000,0
1639814480.468,-449.219,-29.785,-35.156,-119.141,0.000,0
1639814480.472,-1000.000,-16.113,-25.391,-35.156,0.000,0
1639814480.475,-637.695,-11.719,-22.461,19.043,0.000,0
1639814480.479,621.582,-19.531,-26.367,64.453,0.000,0
1639814480.483,931.641,-21.484,-35.156,-9.766,0.000,0
1639814480.486,-310.547,-23.926,-26.855,-96.191,0.000,0
1639814480.490,-1000.000,-18.066,-13.672,-26.855,0.000,0
1639814480.494,-758.789,-15.625,-21.484,17.090,0.000,0
1639814480.498,417.480,-19.531,-43.457,64.941,0.000,0
1639814480.502,998.047,-25.879,-64.453,17.090,0.000,0
1639814480.506,-173.828,-19.043,-44.434,-99.609,0.000,0
1639814480.509,-1000.000,-14.160,-24.414,-70.312,0.000,0
1639814480.513,-796.875,-19.531,-32.715,-3.418,0.000,0
1639814480.517,291.016,-20.508,-46.387,47.852,0.000,0
1639814480.520,-890.625,-15.137,-50.781,0.977,0.000,0
1639814480.524,108.398,-16.113,-45.898,-102.051,0.000,0
1639814480.528,-1000.000,-18.066,-37.598,-73.242,0.000,0
1639814480.531,-850.586,-11.230,-24.902,-13.672,0.000,0
1639814480.535,235.840,-5.371,-16.602,40.527,0.000,0
1639814480.539,-865.723,-2.930,-28.809,0.977,0.000,0
1639814480.543,182.617,-18.555,-48.828,-109.375,0.000,0
1639814480.547,-1000.000,-29.297,-44.922,-80.566,0.000,0
1639814480.551,-942.383,-19.531,-26.855,-20.996,0.000,0
1639814480.554,86.426,-13.184,-16.113,58.105,0.000,0
1639814480.558,-877.930,-16.113,-31.738,56.152,0.000,0
1639814480.562,398.438,-23.438,-44.434,-89.844,0.000,0
1639814480.565,-857.422,-22.461,-31.250,-97.168,0.000,0
1639814480.569,-1000.000,-13.184,-23.438,-24.414,0.000,0
1639814480.573,-124.023,-19.531,-27.344,37.598,0.000,0
1639814480.577,-920.898,-26.855,-33.203,32.715,0.000,0
1639814480.580,488.281,-28.809,-30.273,-90.820,0.000,0
1639814480.584,-793.457,-26.855,-28.809,-111.328,0.000,0
1639814480.588,-1000.000,-24.902,-42.969,-33.203,0.000,0
1639814480.592,-380.859,-19.531,-32.715,23.926,0.000,0
1639814480.596,956.055,-13.672,-26.367,42.480,0.000,0
1639814480.600,619.629,-20.996,-41.016,-52.246,0.000,0
1639814480.603,-682.617,-36.133,-41.016,-101.562,0.000,0
1639814480.607,-1000.000,-30.762,-38.574,-50.781,0.000,0
1639814480.610,-505.859,-21.484,-39.551,-1.465,0.000,0
1639814480.614,801.758,-25.879,-39.551,48.828,0.000,0
1639814480.618,793.457,-24.902,-46.387,-41.016,0.000,0
1639814480.622,-474.121,-21.973,-40.039,-115.234,0.000,0
1639814480.625,-1000.000,-19.043,-37.109,-40.527,0.000,0
1639814480.629,-740.234,-34.668,-57.129,26.855,0.000,0
1639814480.633,493.164,-41.504,-60.059,66.406,0.000,0
1639814480.637,937.500,-20.996,-45.898,-24.902,0.000,0
1639814480.641,-308.105,-24.414,-40.039,-119.141,0.000,0
1639814480.645,-1000.000,-28.809,-34.668,-62.988,0.000,0
1639814480.648,-725.098,-19.531,-27.344,-3.418,0.000,0
1639814480.652,461.914,-18.066,-28.320,51.758,0.000,0
1639814480.656,-986.816,-23.926,-36.621,-11.719,0.000,0
1639814480.660,-178.223,-24.414,-39.062,-125.488,0.000,0
1639814480.663,-1000.000,-23.926,-41.504,-76.172,0.000,0
1639814480.667,-795.410,-17.090,-23.926,2.930,0.000,0
1639814480.671,322.754,-14.648,-23.926,71.289,0.000,0
1639814480.675,-918.945,-26.367,-55.664,14.648,0.000,0
1639814480.679,-24.414,-29.297,-55.664,-106.445,0.000,0
1639814480.683,-1000.000,-24.414,-34.180,-73.730,0.000,0
1639814480.686,-897.461,-29.297,-27.832,-2.441,0.000,0
1639814480.690,119.141,-35.645,-27.832,77.148,0.000,0
1639814480.694,-873.535,-20.020,-27.832,39.062,0.000,0
1639814480.698,212.891,-16.602,-26.855,-100.586,0.000,0
1639814480.701,-1000.000,-18.066,-33.203,-87.402,0.000,0
1639814480.705,-949.707,-19.531,-39.062,-10.254,0.000,0
1639814480.709,74.707,-25.391,-29.297,55.664,0.000,0
1639814480.713,-871.094,-21.973,-35.645,30.273,0.000,0
1639814480.717,316.406,-24.414,-56.641,-102.539,0.000,0
1639814480.721,-926.270,-22.949,-47.852,-95.703,0.000,0
1639814480.724,-1000.000,-16.113,-28.809,-15.625,0.000,0
1639814480.728,-149.414,-17.090,-26.367,37.109,0.000,0
1639814480.732,-933.105,-21.484,-41.992,35.645,0.000,0
1639814480.736,508.789,-24.414,-45.898,-83.984,0.000,0
1639814480.740,-766.113,-24.902,-28.809,-107.910,0.000,0
1639814480.744,-1000.000,-22.949,-22.949,-26.367,0.000,0
1639814480.747,-339.844,-17.578,-32.227,50.293,0.000,0
1639814480.751,925.293,-8.789,-38.574,72.754,0.000,0
1639814480.755,666.504,-12.695,-31.250,-53.711,0.000,0
1639814480.759,-614.746,-21.973,-29.785,-100.098,0.000,0
1639814480.762,-1000.000,-29.297,-41.504,-17.578,0.000,0
1639814480.766,-477.539,-25.879,-39.551,32.715,0.000,0
1639814480.770,819.824,-23.926,-45.410,63.477,0.000,0
1639814480.774,758.301,-37.109,-60.547,-35.156,0.000,0
1639814480.778,-533.203,-39.551,-51.758,-103.516,0.000,0
1639814480.782,-1000.000,-28.809,-24.414,-36.133,0.000,0
1639814480.785,-570.312,-21.973,-16.113,8.301,0.000,0
1639814480.789,674.316,-28.320,-34.668,61.035,0.000,0
1639814480.793,915.039,-31.250,-36.621,-21.484,0.000,0
1639814480.797,-311.035,-20.996,-23.438,-127.441,0.000,0
1639814480.800,-1000.000,-19.531,-34.668,-67.871,0.000,0
1639814480.804,-757.812,-28.320,-38.574,-3.418,0.000,0
1639814480.808,434.570,-28.320,-34.180,44.922,0.000,0
1639814480.812,993.164,-25.391,-42.969,-5.371,0.000,0
1639814480.816,-213.379,-24.414,-47.852,-113.770,0.000,0
1639814480.820,-1000.000,-27.832,-53.711,-64.453,0.000,0
1639814480.823,-820.312,-26.367,-40.527,7.812,0.000,0
1639814480.827,308.105,-10.742,-18.066,48.340,0.000,0
1639814480.831,-924.316,-12.207,-30.273,-11.719,0.000,0
1639814480.835,-54.199,-25.879,-38.574,-130.371,0.000,0
1639814480.838,-1000.000,-22.949,-28.320,-89.844,0.000,0
1639814480.842,-878.906,-17.090,-19.531,-17.090,0.000,0
1639814480.846,176.270,-31.250,-29.785,46.875,0.000,0
1639814480.850,-874.023,-36.133,-53.223,9.766,0.000,0
1639814480.854,134.766,-23.438,-49.316,-106.934,0.000,0
1639814480.858,-1000.000,-30.762,-35.645,-74.219,0.000,0
1639814480.861,-1000.000,-40.039,-36.133,-17.578,0.000,0
1639814480.865,-76.172,-31.738,-37.598,52.246,0.000,0
1639814480.869,-891.602,-19.531,-39.062,40.039,0.000,0
1639814480.873,335.449,-25.879,-32.227,-95.215,0.000,0
1639814480.877,-934.082,-38.574,-30.273,-96.680,0.000,1
1639814480.880,-1000.000,-29.785,-26.855,-28.809,0.000,0
1639814480.884,-97.656,-22.461,-18.555,34.180,0.000,0
1639814480.888,-909.668,-33.203,-48.828,37.598,0.000,0
1639814480.892,418.457,-36.133,-63.965,-85.938,0.000,0
1639814480.895,-848.145,-30.762,-44.434,-117.188,0.000,0
1639814480.899,-1000.000,-32.715,-31.738,-45.410,0.000,0
1639814480.903,-305.664,-35.645,-32.715,23.438,0.000,0
1639814480.907,965.332,-39.062,-48.340,46.875,0.000,0
1639814480.911,611.816,-37.598,-56.641,-54.688,0.000,0
1639814480.915,-655.762,-31.250,-39.062,-114.258,0.000,0
1639814480.918,-1000.000,-33.203,-32.715,-49.805,0.000,0
1639814480.922,-427.246,-27.832,-31.250,8.789,0.000,0
1639814480.926,848.633,-12.695,-24.902,43.457,0.000,0
1639814480.930,770.996,-14.160,-34.668,-51.270,0.000,0
1639814480.933,-485.840,-21.484,-35.156,-114.258,0.000,0
1639814480.937,-1000.000,-24.902,-29.785,-42.480,0.000,0
1639814480.941,-570.312,-24.902,-31.250,13.672,0.000,0
1639814480.945,705.566,-18.066,-38.574,72.266,0.000,0
1639814480.949,853.027,-31.738,-49.805,-12.207,0.000,0
1639814480.952,-408.691,-44.922,-58.594,-109.375,0.000,0
1639814480.956,-1000.000,-31.250,-43.945,-46.387,0.000,0
1639814480.960,-713.379,-20.508,-25.879,11.719,0.000,0
1639814480.964,493.164,-23.926,-33.203,51.758,0.000,0
1639814480.968,-996.094,-24.414,-37.598,-30.273,0.000,0
1639814480.972,-189.453,-29.785,-36.621,-131.836,0.000,0
1639814480.975,-1000.000,-28.809,-40.039,-65.918,0.000,0
1639814480.979,-823.242,-22.949,-33.691,-0.488,0.000,0
1639814480.983,293.457,-27.344,-44.434,56.641,0.000,0
1639814480.986,-918.945,-29.785,-50.293,-3.906,0.000,0
1639814480.990,-21.484,-27.832,-40.039,-100.586,0.000,0
1639814480.994,-1000.000,-35.156,-46.875,-50.293,0.000,0
1639814480.998,-886.719,-35.156,-43.945,-4.883,0.000,0
1639814481.002,188.477,-21.973,-30.762,46.387,0.000,0
1639814481.006,-880.371,-19.531,-38.574,17.578,0.000,0
1639814481.009,70.312,-25.391,-38.086,-94.727,0.000,0
1639814481.013,-1000.000,-30.762,-19.043,-77.637,0.000,0
1639814481.017,-936.523,-28.809,-16.113,-23.926,0.000,0
1639814481.021,64.453,-28.320,-27.832,41.016,0.000,0
1639814481.025,-869.629,-39.551,-43.945,30.273,0.000,0
1639814481.029,294.922,-40.039,-56.641,-88.379,0.000,0
1639814481.033,-933.594,-25.879,-35.156,-84.961,0.000,0
1639814481.036,-1000.000,-30.273,-27.832,-21.484,0.000,0
1639814481.040,-176.758,-45.410,-40.039,49.316,0.000,0
1639814481.044,-926.758,-35.645,-45.410,56.152,0.000,0
1639814481.048,421.387,-24.414,-37.598,-77.637,0.000,0
1639814481.052,-853.516,-27.344,-30.273,-89.355,0.000,0
1639814481.056,-1000.000,-35.156,-34.180,-1.953,0.000,0
1639814481.059,-270.996,-29.785,-28.320,48.340,0.000,0
1639814481.063,-990.234,-26.367,-34.180,64.941,0.000,0
1639814481.067,553.711,-28.809,-45.410,-50.293,0.000,0
1639814481.071,-733.887,-28.320,-35.156,-98.633,0.000,0
1639814481.075,-1000.000,-27.344,-34.180,-42.480,0.000,0
1639814481.079,-439.941,-27.344,-34.180,11.230,0.000,0
1639814481.083,860.840,-30.273,-32.227,66.895,0.000,0
1639814481.086,706.543,-36.621,-43.945,-39.551,0.000,0
1639814481.090,-581.543,-30.762,-36.621,-113.281,0.000,0
1639814481.094,-1000.000,-26.855,-26.367,-29.297,0.000,0
1639814481.098,-687.988,-38.574,-36.133,25.879,0.000,0
1639814481.102,561.035,-41.504,-41.504,70.801,0.000,0
1639814481.105,893.066,-29.785,-35.645,-18.066,0.000,0
1639814481.109,-365.723,-29.297,-35.645,-118.164,0.000,0
1639814481.113,-1000.000,-40.039,-42.969,-45.410,0.000,0
1639814481.117,-712.402,-43.457,-47.852,6.348,0.000,0
1639814481.121,499.023,-30.762,-50.293,51.758,0.000,0
1639814481.125,966.309,-31.738,-59.570,-4.883,0.000,0
1639814481.129,-257.812,-26.855,-54.199,-100.586,0.000,0
1639814481.132,-1000.000,-14.648,-41.016,-56.641,0.000,0
1639814481.136,-846.191,-14.648,-40.527,-2.930,0.000,0
1639814481.140,281.738,-19.043,-45.410,62.500,0.000,0
1639814481.144,-959.961,-29.785,-56.152,-1.953,0.000,0
1639814481.148,-109.375,-39.062,-39.551,-135.742,0.000,0
1639814481.152,-1000.000,-34.180,-20.996,-86.426,0.000,0
1639814481.155,-903.809,-29.785,-33.203,-12.207,0.000,0
1639814481.159,148.926,-33.691,-43.945,51.270,0.000,0
1639814481.163,-876.465,-28.809,-44.922,1.953,0.000,0
1639814481.167,110.840,-24.414,-42.480,-125.488,0.000,0
1639814481.171,-1000.000,-27.832,-42.480,-98.633,0.000,0
1639814481.175,-964.355,-29.297,-40.527,-30.762,0.000,0
1639814481.178,30.762,-28.320,-36.133,45.898,0.000,0
1639814481.182,-866.211,-24.902,-34.668,39.551,0.000,0
1639814481.186,197.754,-35.645,-41.016,-79.590,0.000,0
1639814481.190,-1000.000,-38.574,-39.551,-77.148,0.000,0
1639814481.194,-1000.000,-29.785,-17.578,-14.648,0.000,0
1639814481.198,-63.965,-26.367,-19.531,41.992,0.000,0
1639814481.201,-899.902,-30.273,-38.086,40.527,0.000,0
1639814481.205,434.082,-40.039,-43.457,-82.520,0.000,0
1639814481.209,-828.613,-32.227,-35.645,-100.098,0.000,0
1639814481.213,-1000.000,-30.762,-35.156,-14.648,0.000,0
1639814481.217,-252.441,-30.273,-33.203,53.223,0.000,0
1639814481.221,-979.980,-20.020,-40.039,71.289,0.000,0
1639814481.224,560.059,-27.344,-61.523,-42.480,0.000,0
1639814481.228,-716.797,-27.344,-44.922,-102.051,0.000,0
1639814481.232,-1000.000,-27.344,-31.250,-24.414,0.000,0
1639814481.236,-446.777,-22.949,-29.297,37.598,0.000,0
1639814481.240,875.488,-19.043,-30.762,62.012,0.000,0
1639814481.243,695.801,-28.320,-42.969,-41.992,0.000,0
1639814481.247,-593.262,-21.484,-32.227,-110.352,0.000,0
1639814481.251,-1000.000,-15.625,-26.367,-41.992,0.000,0
1639814481.255,-549.805,-27.832,-32.715,9.277,0.000,0
1639814481.259,721.191,-34.180,-32.715,59.570,0.000,0
1639814481.263,859.863,-22.461,-38.086,-30.273,0.000,0
1639814481.266,-390.625,-8.789,-35.156,-120.117,0.000,0
1639814481.270,-1000.000,-15.625,-32.715,-41.016,0.000,0
1639814481.274,-812.988,-28.809,-48.828,25.391,0.000,0
1639814481.278,373.047,-19.531,-56.641,60.547,0.000,0
1639814481.282,974.121,-7.812,-44.434,-25.879,0.000,0
1639814481.286,-253.418,-20.508,-36.133,-122.559,0.000,0
1639814481.289,-1000.000,-27.344,-30.762,-65.430,0.000,0
1639814481.293,-832.031,-20.508,-23.438,-5.371,0.000,0
1639814481.297,313.965,-16.113,-21.973,45.898,0.000,0
1639814481.301,-962.891,-16.602,-39.062,-2.441,0.000,0
1639814481.305,-147.461,-20.996,-48.340,-112.305,0.000,0
1639814481.309,-1000.000,-18.555,-34.668,-71.777,0.000,0
1639814481.312,-892.090,-24.414,-34.180,3.906,0.000,0
1639814481.316,171.387,-36.621,-42.969,67.871,0.000,0
1639814481.320,-923.340,-33.691,-54.199,36.133,0.000,0
1639814481.324,6.348,-29.785,-46.875,-68.359,0.000,0
1639814481.328,-1000.000,-28.320,-19.043,-51.270,0.000,0
1639814481.331,-948.242,-24.414,-22.949,1.465,0.000,0
1639814481.335,53.711,-19.043,-24.902,54.199,0.000,0
1639814481.339,-866.699,-15.625,-23.438,31.250,0.000,0
1639814481.343,258.301,-22.461,-26.855,-89.355,0.000,0
1639814481.347,-960.938,-28.809,-33.691,-74.219,0.000,0
1639814481.350,-1000.000,-27.344,-48.828,6.836,0.000,0
1639814481.354,-93.262,-22.461,-40.527,62.012,0.000,0
1639814481.358,-876.953,-26.855,-40.527,43.457,0.000,0
1639814481.362,309.082,-38.086,-51.758,-73.242,0.000,0
1639814481.366,-948.242,-25.391,-42.969,-87.891,0.000,0
1639814481.370,-1000.000,-9.277,-25.391,-29.785,0.000,0
1639814481.373,-249.512,-15.625,-25.879,36.133,0.000,0
1639814481.377,-981.934,-18.555,-40.039,53.711,0.000,0
1639814481.381,542.480,-18.066,-43.945,-69.336,0.000,0
1639814481.385,-732.910,-24.902,-32.715,-102.051,0.000,0
1639814481.389,-1000.000,-27.344,-29.785,-28.320,0.000,0
1639814481.393,-463.867,-16.113,-22.949,26.367,0.000,0
1639814481.397,871.582,-11.719,-35.156,60.547,0.000,0
1639814481.401,681.641,-19.531,-63.965,-46.387,0.000,0
1639814481.405,-608.887,-22.949,-54.199,-103.516,0.000,0
1639814481.408,-1000.000,-25.391,-41.016,-13.184,0.000,0
1639814481.412,-645.508,-23.438,-34.668,41.992,0.000,0
1639814481.416,673.828,-21.973,-36.133,63.477,0.000,0
1639814481.420,793.945,-32.227,-51.270,-37.598,0.000,0
1639814481.424,-513.672,-42.480,-51.758,-109.375,0.000,0
1639814481.428,-1000.000,-24.902,-34.180,-50.781,0.000,0
1639814481.431,-665.039,-13.184,-24.902,1.465,0.000,0
1639814481.436,556.641,-7.812,-32.227,62.500,0.000,0
1639814481.439,958.984,-16.602,-46.875,-9.277,0.000,0
1639814481.443,-260.254,-35.645,-45.898,-121.582,0.000,0
1639814481.447,-1000.000,-28.320,-42.969,-65.430,0.000,0
1639814481.451,-788.086,-27.832,-42.969,15.625,0.000,0
1639814481.455,346.680,-26.855,-42.480,79.590,0.000,0
1639814481.459,-943.848,-20.020,-43.457,25.879,0.000,0
1639814481.462,-69.824,-22.949,-32.715,-89.355,0.000,0
1639814481.466,-1000.000,-18.555,-47.363,-41.016,0.000,0
1639814481.470,-824.219,-9.766,-49.805,23.438,0.000,0
1639814481.474,279.785,-12.695,-26.855,54.199,0.000,0
1639814481.478,-897.949,-24.414,-38.574,15.137,0.000,0
1639814481.482,78.613,-30.762,-48.340,-95.703,0.000,0
1639814481.486,-1000.000,-20.996,-37.109,-50.781,0.000,0
1639814481.490,-881.836,-15.625,-23.926,14.160,0.000,0
1639814481.493,177.246,-19.043,-26.367,47.852,0.000,0
1639814481.497,-869.141,-18.066,-40.527,29.297,0.000,0
1639814481.501,229.980,-17.578,-46.387,-79.590,0.000,0
1639814481.505,-975.586,-21.484,-40.527,-69.824,0.000,0
1639814481.509,-1000.000,-27.832,-38.086,-5.859,0.000,0
1639814481.512,-91.309,-28.320,-41.016,63.477,0.000,0
1639814481.516,-916.016,-19.531,-35.645,45.410,0.000,0
1639814481.520,421.875,-17.090,-41.016,-91.309,0.000,0
1639814481.524,-863.770,-19.043,-42.480,-92.773,0.000,0
1639814481.528,-1000.000,-18.555,-30.273,-17.578,0.000,0
1639814481.532,-133.789,-14.160,-24.902,35.156,0.000,0
1639814481.536,-946.777,-13.672,-38.086,46.387,0.000,0
1639814481.540,510.254,-22.461,-60.547,-70.312,0.000,0
1639814481.543,-758.301,-21.973,-48.828,-98.145,0.000,0
1639814481.547,-1000.000,-26.367,-33.691,-28.320,0.000,0
1639814481.551,-394.531,-31.738,-37.109,16.113,0.000,0
1639814481.555,898.438,-23.926,-48.340,64.453,0.000,0
1639814481.559,668.945,-20.996,-52.734,-44.434,0.000,0
1639814481.563,-604.004,-17.578,-38.086,-126.953,0.000,0
1639814481.566,-1000.000,-17.578,-31.738,-46.875,0.000,0
1639814481.570,-581.055,-24.902,-46.875,7.324,0.000,0
1639814481.574,716.797,-27.344,-57.617,45.898,0.000,0
1639814481.578,812.012,-25.879,-58.105,-42.969,0.000,0
1639814481.582,-453.613,-27.344,-56.641,-113.770,0.000,0
1639814481.586,-1000.000,-25.391,-48.828,-46.387,0.000,0
1639814481.590,-631.348,-21.484,-39.062,9.766,0.000,0
1639814481.593,616.211,-23.438,-46.387,73.730,0.000,0
1639814481.597,913.574,-26.855,-57.617,-11.230,0.000,0
1639814481.601,-333.984,-28.809,-53.223,-114.746,0.000,0
1639814481.605,-1000.000,-24.414,-39.551,-60.547,0.000,0
1639814481.609,-704.102,-24.414,-29.785,-3.906,0.000,0
1639814481.613,439.453,-28.809,-43.945,49.805,0.000,0
1639814481.616,-960.938,-29.785,-57.617,-18.066,0.000,0
1639814481.620,-95.703,-21.973,-43.457,-118.652,0.000,0
1639814481.624,-1000.000,-29.785,-32.227,-64.453,0.000,0
1639814481.628,-842.773,-37.109,-38.574,3.418,0.000,0
1639814481.632,258.301,-17.090,-40.527,60.059,0.000,0
1639814481.636,-903.809,-23.438,-48.828,-0.488,0.000,0
1639814481.640,33.691,-29.785,-44.922,-126.465,0.000,0
1639814481.643,-1000.000,-27.832,-29.297,-79.590,0.000,0
1639814481.647,-889.648,-33.691,-34.180,-9.766,0.000,0
1639814481.651,167.969,-28.320,-28.320,31.738,0.000,0
1639814481.655,-871.582,-25.879,-36.133,15.137,0.000,0
1639814481.659,221.191,-24.414,-41.016,-98.633,0.000,0
1639814481.663,-991.211,-23.926,-32.715,-80.566,0.000,0
1639814481.667,-955.078,-21.973,-29.785,-10.742,0.000,0
1639814481.670,52.734,-19.043,-26.367,37.598,0.000,0
1639814481.674,-887.207,-27.832,-39.551,32.715,0.000,0
1639814481.678,390.137,-29.785,-52.246,-74.707,0.000,0
1639814481.682,-857.422,-27.832,-38.574,-82.031,0.000,0
1639814481.686,-1000.000,-32.227,-41.992,-20.508,0.000,0
1639814481.689,-270.996,-36.621,-52.246,42.480,0.000,0
1639814481.693,994.629,-31.250,-53.223,41.504,0.000,0
1639814481.697,539.062,-29.785,-45.410,-97.168,0.000,0
1639814481.701,-763.672,-38.086,-36.621,-126.953,0.000,0
1639814481.705,-1000.000,-36.621,-32.715,-48.828,0.000,0
1639814481.709,-330.078,-32.715,-34.668,11.719,0.000,0
1639814481.713,940.918,-34.180,-48.340,42.480,0.000,0
1639814481.716,629.395,-38.086,-62.012,-64.453,0.000,0
1639814481.720,-654.297,-39.062,-51.270,-129.395,0.000,1
1639814481.724,-1000.000,-34.668,-36.133,-62.012,0.000,0
1639814481.728,-525.391,-28.809,-35.645,1.953,0.000,0
1639814481.732,758.301,-33.203,-47.363,65.918,0.000,0
1639814481.736,794.922,-32.227,-49.316,-25.879,0.000,0
1639814481.739,-464.844,-24.902,-30.273,-117.188,0.000,0
1639814481.743,-1000.000,-24.902,-22.949,-47.363,0.000,0
1639814481.747,-742.676,-32.227,-32.227,5.371,0.000,0
1639814481.751,504.395,-34.180,-28.320,45.898,0.000,0
1639814481.755,921.387,-36.133,-30.762,-39.551,0.000,0
1639814481.759,-331.543,-40.527,-50.781,-135.254,0.000,0
1639814481.763,-1000.000,-34.668,-46.875,-72.266,0.000,0
1639814481.767,-723.633,-29.785,-33.691,-11.230,0.000,0
1639814481.771,443.359,-30.762,-36.133,33.691,0.000,0
1639814481.774,-984.375,-32.715,-53.711,-28.320,0.000,0
1639814481.778,-166.504,-32.715,-58.105,-125.488,0.000,0
1639814481.782,-1000.000,-29.297,-49.316,-81.543,0.000,0
1639814481.786,-808.594,-25.391,-41.992,-18.555,0.000,0
1639814481.790,292.480,-29.785,-41.504,41.016,0.000,0
1639814481.794,-894.043,-41.992,-49.805,-5.371,0.000,0
1639814481.797,80.566,-35.645,-43.945,-119.629,0.000,0
1639814481.801,-1000.000,-29.297,-41.992,-85.938,0.000,0
1639814481.806,-927.246,-39.551,-45.898,-32.227,0.000,0
1639814481.809,121.582,-37.109,-41.016,14.160,0.000,0
1639814481.813,-874.023,-32.715,-39.062,-4.395,0.000,0
1639814481.817,183.594,-30.762,-47.852,-123.535,0.000,0
1639814481.821,-995.117,-32.715,-43.457,-114.746,0.000,0
1639814481.825,-1000.000,-38.574,-41.016,-29.297,0.000,0
1639814481.829,-43.457,-23.438,-52.246,42.480,0.000,0
1639814481.832,-870.605,-25.879,-56.641,21.484,0.000,0
1639814481.836,281.738,-50.293,-64.453,-98.145,0.000,0
1639814481.840,-976.562,-45.410,-52.734,-102.051,0.000,0
1639814481.844,-1000.000,-26.855,-35.645,-35.645,0.000,0
1639814481.848,-135.742,-31.738,-42.480,34.668,0.000,0
1639814481.852,-943.848,-30.762,-47.363,52.734,0.000,0
1639814481.856,509.277,-27.344,-45.898,-82.031,0.000,0
1639814481.860,-753.906,-24.902,-37.109,-125.977,0.000,0
1639814481.864,-1000.000,-20.508,-38.574,-42.480,0.000,0
1639814481.867,-345.215,-25.391,-44.922,22.949,0.000,0
1639814481.871,968.262,-26.367,-50.293,53.223,0.000,0
1639814481.875,631.836,-21.973,-63.477,-54.688,0.000,0
1639814481.879,-653.320,-22.949,-64.941,-108.398,0.000,0
1639814481.883,-1000.000,-40.039,-57.617,-23.926,0.000,0
1639814481.887,-506.836,-36.133,-38.574,25.391,0.000,0
1639814481.890,793.945,-18.555,-41.016,63.477,0.000,0
1639814481.894,761.719,-24.902,-55.176,-41.016,0.000,0
1639814481.898,-512.207,-27.344,-40.039,-121.582,0.000,0
1639814481.902,-1000.000,-21.973,-23.926,-48.340,0.000,0
1639814481.906,-636.719,-24.902,-28.809,15.625,0.000,0
1639814481.910,622.559,-20.996,-45.410,62.012,0.000,0
1639814481.914,868.164,-18.066,-59.570,-23.438,0.000,0
1639814481.918,-406.738,-21.484,-57.617,-104.492,0.000,0
1639814481.921,-1000.000,-17.578,-45.898,-48.828,0.000,0
1639814481.925,-822.754,-22.461,-37.109,8.301,0.000,0
1639814481.929,300.293,-29.785,-36.621,67.383,0.000,0
1639814481.933,-977.539,-28.320,-39.062,2.930,0.000,0
1639814481.937,-147.461,-31.250,-41.992,-103.027,0.000,0
1639814481.941,-1000.000,-29.785,-44.922,-61.523,0.000,0
1639814481.945,-810.547,-27.344,-30.273,-8.789,0.000,0
1639814481.949,300.293,-24.414,-18.066,46.387,0.000,0
1639814481.952,-923.340,-24.902,-30.762,12.207,0.000,0
1639814481.956,-23.926,-20.508,-33.691,-86.426,0.000,0
1639814481.960,-1000.000,-19.043,-24.414,-44.434,0.000,0
1639814481.964,-888.672,-26.855,-20.996,19.531,0.000,0
1639814481.968,120.117,-22.949,-28.809,76.660,0.000,0
1639814481.972,-870.605,-29.297,-40.039,32.715,0.000,0
1639814481.975,214.844,-26.367,-29.297,-103.516,0.000,0
1639814481.979,-981.445,-6.836,-17.578,-91.797,0.000,0
1639814481.983,-997.070,-9.277,-25.879,-10.742,0.000,0
1639814481.987,-57.617,-15.137,-44.922,62.012,0.000,0
1639814481.991,-896.484,-13.184,-56.152,32.715,0.000,0
1639814481.995,382.324,-25.879,-52.734,-99.609,0.000,0
1639814481.999,-891.113,-32.227,-36.133,-96.680,0.000,0
1639814482.003,-1000.000,-30.273,-28.809,-20.020,0.000,0
1639814482.006,-105.957,-26.855,-28.809,36.133,0.000,0
1639814482.010,-914.062,-22.461,-40.039,27.832,0.000,0
1639814482.014,421.387,-27.344,-57.129,-84.473,0.000,0
1639814482.018,-868.164,-29.297,-48.828,-100.586,0.000,0
1639814482.022,-1000.000,-25.391,-29.785,-35.156,0.000,0
1639814482.026,-281.250,-20.508,-31.738,37.109,0.000,0
1639814482.029,959.961,-17.578,-40.039,50.781,0.000,0
1639814482.033,656.250,-21.973,-44.922,-72.266,0.000,0
1639814482.037,-607.422,-32.227,-35.156,-109.375,0.000,0
1639814482.041,-1000.000,-31.738,-29.785,-37.109,0.000,0
1639814482.045,-512.695,-24.414,-31.738,18.066,0.000,0
1639814482.049,785.645,-19.531,-36.133,61.035,0.000,0
1639814482.053,776.367,-13.184,-42.480,-38.574,0.000,0
1639814482.056,-495.117,-14.160,-39.551,-114.746,0.000,0
1639814482.060,-1000.000,-20.996,-35.156,-26.367,0.000,0
1639814482.064,-656.250,-22.949,-27.832,28.320,0.000,0
1639814482.068,623.535,-24.414,-20.508,46.875,0.000,0
1639814482.072,887.695,-28.320,-32.715,-46.875,0.000,0
1639814482.076,-370.605,-29.785,-37.598,-135.254,0.000,0
1639814482.079,-1000.000,-27.344,-33.203,-60.547,0.000,0
1639814482.083,-743.164,-22.461,-29.785,-8.301,0.000,0
1639814482.087,435.547,-23.926,-35.156,34.668,0.000,0
1639814482.091,-999.023,-34.180,-46.387,-12.695,0.000,0
1639814482.095,-216.797,-27.832,-38.086,-109.863,0.000,0
1639814482.099,-1000.000,-23.438,-28.809,-61.523,0.000,0
1639814482.103,-859.863,-41.504,-35.645,3.418,0.000,0
1639814482.106,149.414,-44.434,-37.598,56.152,0.000,0
1639814482.110,-925.293,-40.527,-33.203,-11.719,0.000,0
1639814482.114,-37.109,-32.227,-38.086,-125.000,0.000,0
1639814482.118,-1000.000,-22.461,-44.434,-74.219,0.000,0
1639814482.122,-898.926,-17.578,-33.691,-16.113,0.000,0
1639814482.126,153.809,-14.160,-29.297,42.969,0.000,0
1639814482.131,-884.766,-24.414,-41.992,7.324,0.000,0
1639814482.134,105.469,-32.715,-42.969,-116.211,0.000,0
1639814482.138,-1000.000,-31.250,-31.250,-93.262,0.000,0
1639814482.142,-961.914,-32.227,-37.109,-25.391,0.000,0
1639814482.146,24.414,-37.598,-38.574,38.574,0.000,0
1639814482.150,-877.441,-38.574,-42.480,27.832,0.000,0
1639814482.154,275.879,-36.133,-51.270,-88.867,0.000,0
1639814482.157,-943.359,-29.785,-43.945,-90.820,0.000,0
1639814482.161,-1000.000,-25.879,-39.062,-13.672,0.000,0
1639814482.165,-197.754,-39.551,-35.156,56.152,0.000,0
1639814482.169,-952.148,-39.551,-42.969,32.227,0.000,0
1639814482.173,515.137,-33.691,-61.523,-107.910,0.000,0
1639814482.177,-772.949,-40.039,-56.152,-111.816,0.000,0
1639814482.181,-1000.000,-45.410,-45.898,-26.367,0.000,0
1639814482.185,-245.605,-46.875,-41.992,23.438,0.000,0
1639814482.189,992.188,-33.691,-51.270,39.551,0.000,0
1639814482.193,596.680,-24.414,-55.176,-69.336,0.000,0
1639814482.196,-687.012,-29.297,-49.805,-108.398,0.000,0
1639814482.200,-1000.000,-26.367,-48.340,-37.109,0.000,0
1639814482.204,-422.852,-22.461,-41.992,7.324,0.000,0
1639814482.208,837.402,-26.855,-47.363,51.758,0.000,0
1639814482.212,766.602,-26.855,-45.410,-36.621,0.000,0
1639814482.216,-489.258,-33.203,-31.250,-107.422,0.000,0
1639814482.219,-1000.000,-35.156,-34.668,-34.180,0.000,0
1639814482.224,-733.887,-37.109,-43.457,24.414,0.000,0
1639814482.228,512.695,-38.086,-41.504,68.359,0.000,0
1639814482.231,902.344,-24.902,-37.109,-32.715,0.000,0
1639814482.235,-358.398,-21.484,-43.457,-125.488,0.000,0
1639814482.239,-1000.000,-26.367,-41.992,-50.293,0.000,0
1639814482.243,-776.855,-26.855,-36.621,2.441,0.000,0
1639814482.247,420.898,-20.996,-37.598,46.387,0.000,0
1639814482.251,967.773,-23.438,-42.480,-10.742,0.000,0
1639814482.254,-274.414,-34.180,-36.621,-110.352,0.000,0
1639814482.258,-1000.000,-25.879,-20.996,-55.664,0.000,0
1639814482.262,-802.734,-18.555,-9.277,13.184,0.000,0
1639814482.266,305.176,-28.809,-33.691,67.383,0.000,0
1639814482.270,-926.270,-33.203,-58.594,11.230,0.000,0
1639814482.274,-33.691,-29.297,-39.062,-111.816,0.000,0
1639814482.278,-1000.000,-30.273,-34.668,-79.102,0.000,0
1639814482.282,-960.449,-34.180,-44.434,0.488,0.000,0
1639814482.286,74.219,-28.320,-49.316,50.293,0.000,0
1639814482.289,-881.836,-26.367,-56.152,12.695,0.000,0
1639814482.293,84.961,-29.297,-41.016,-101.562,0.000,0
1639814482.297,-1000.000,-29.785,-35.156,-64.453,0.000,0
1639814482.301,-962.891,-35.645,-34.668,13.672,0.000,0
1639814482.305,26.367,-29.297,-34.180,41.504,0.000,0
1639814482.309,-876.465,-25.391,-52.734,16.602,0.000,0
1639814482.312,263.672,-26.855,-46.875,-95.703,0.000,0
1639814482.317,-958.984,-28.320,-26.855,-99.609,0.000,0
1639814482.321,-1000.000,-27.832,-24.414,-32.227,0.000,0
1639814482.324,-115.234,-26.367,-31.250,34.180,0.000,0
1639814482.328,-921.387,-31.250,-44.922,44.922,0.000,0
1639814482.332,436.523,-31.738,-61.523,-86.914,0.000,0
1639814482.336,-828.125,-28.809,-56.641,-113.281,0.000,0
1639814482.340,-1000.000,-30.762,-39.551,-32.715,0.000,0
1639814482.344,-434.570,-35.156,-45.898,27.344,0.000,0
1639814482.347,891.113,-25.391,-45.898,41.016,0.000,0
1639814482.351,649.414,-17.090,-37.109,-77.148,0.000,0
1639814482.355,-656.250,-19.043,-39.551,-116.699,0.000,0
1639814482.359,-1000.000,-23.926,-32.715,-41.992,0.000,0
1639814482.363,-432.617,-32.227,-29.785,-1.953,0.000,0
1639814482.367,853.516,-30.762,-40.039,49.316,0.000,0
1639814482.371,708.984,-34.668,-53.223,-42.969,0.000,0
1639814482.375,-566.406,-31.738,-45.898,-124.023,0.000,0
1639814482.379,-1000.000,-23.438,-29.297,-43.457,0.000,0
1639814482.382,-680.176,-24.902,-37.109,20.508,0.000,0
1639814482.386,590.820,-30.273,-62.500,67.383,0.000,0
1639814482.390,851.074,-25.391,-61.523,-20.996,0.000,0
1639814482.394,-411.133,-13.184,-27.344,-121.094,0.000,0
1639814482.398,-1000.000,-25.391,-20.508,-48.828,0.000,0
1639814482.402,-787.109,-29.785,-29.297,13.184,0.000,0
1639814482.405,416.992,-19.043,-27.832,59.570,0.000,0
1639814482.410,973.145,-22.949,-21.973,-1.465,0.000,0
1639814482.413,-254.395,-33.203,-31.250,-104.980,0.000,0
1639814482.417,-1000.000,-26.855,-39.551,-61.035,0.000,0
1639814482.421,-846.680,-16.113,-25.391,7.812,0.000,0
1639814482.425,284.180,-15.625,-29.785,54.688,0.000,0
1639814482.429,-971.191,-26.855,-46.387,-17.090,0.000,0
1639814482.433,-174.805,-34.180,-46.387,-122.070,0.000,0
1639814482.436,-1000.000,-21.973,-32.227,-83.496,0.000,0
1639814482.440,-895.508,-14.160,-20.020,-26.367,0.000,0
1639814482.444,137.207,-21.484,-35.645,42.969,0.000,0
1639814482.448,-885.254,-27.832,-43.457,12.695,0.000,0
1639814482.452,77.148,-21.973,-27.832,-106.445,0.000,0
1639814482.456,-1000.000,-19.531,-26.367,-76.660,0.000,0
1639814482.460,-1000.000,-28.809,-35.645,-3.906,0.000,0
1639814482.463,-39.551,-23.926,-30.762,61.523,0.000,0
1639814482.467,-870.117,-14.648,-35.645,38.574,0.000,0
1639814482.471,267.090,-16.602,-43.457,-98.633,0.000,0
1639814482.475,-968.750,-26.855,-42.969,-82.031,0.000,0
1639814482.479,-1000.000,-21.973,-34.668,20.508,0.000,0
1639814482.483,-69.824,-13.672,-25.391,68.848,0.000,0
1639814482.486,-906.738,-21.484,-23.926,60.059,0.000,0
1639814482.490,422.363,-22.949,-34.668,-50.781,0.000,0
1639814482.494,-854.004,-20.020,-23.438,-79.590,0.000,0
1639814482.498,-1000.000,-18.555,-8.301,-15.137,0.000,0
1639814482.503,-162.109,-19.043,-22.949,40.527,0.000,0
1639814482.506,-991.211,-25.391,-39.551,52.246,0.000,0
1639814482.510,631.348,-20.020,-41.992,-52.734,0.000,0
1639814482.514,-629.883,-5.859,-25.391,-92.285,0.000,1
1639814482.518,-1000.000,-8.301,-29.785,-14.160,0.000,0
1639814482.522,-415.527,-15.625,-39.551,47.852,0.000,0
1639814482.526,854.980,-13.184,-39.551,73.730,0.000,0
1639814482.529,744.629,-21.484,-45.410,-23.926,0.000,0
1639814482.533,-518.555,-26.367,-45.410,-110.352,0.000,0
1639814482.537,-1000.000,-26.367,-34.180,-47.363,0.000,0
1639814482.541,-520.020,-20.508,-23.926,10.742,0.000,0
1639814482.545,733.887,-11.719,-38.086,56.641,0.000,0
1639814482.549,833.984,-13.184,-49.805,-18.066,0.000,0
1639814482.553,-411.621,-14.648,-30.762,-113.281,0.000,0
1639814482.557,-1000.000,-14.160,-20.508,-46.875,0.000,0
1639814482.561,-706.543,-20.020,-19.531,9.277,0.000,0
1639814482.565,499.023,-28.809,-32.715,56.641,0.000,0
1639814482.568,959.473,-28.320,-47.852,-3.906,0.000,0
1639814482.572,-265.137,-25.391,-37.109,-104.980,0.000,0
1639814482.576,-1000.000,-23.926,-30.273,-46.875,0.000,0
1639814482.580,-899.902,-30.762,-39.062,10.742,0.000,0
1639814482.584,181.152,-29.785,-43.457,56.152,0.000,0
1639814482.588,-933.105,-10.742,-41.016,9.766,0.000,0
1639814482.591,-71.289,-19.043,-49.805,-98.633,0.000,0
1639814482.596,-1000.000,-27.344,-45.410,-71.777,0.000,0
1639814482.600,-888.184,-19.043,-29.297,-19.043,0.000,0
1639814482.604,175.781,-17.090,-22.949,44.922,0.000,0
1639814482.607,-893.066,-20.508,-35.156,18.555,0.000,0
1639814482.611,70.801,-19.043,-39.062,-91.309,0.000,0
1639814482.615,-1000.000,-18.066,-25.879,-64.453,0.000,0
1639814482.619,-962.891,-12.207,-35.645,8.789,0.000,0
1639814482.623,31.738,-8.789,-38.574,69.824,0.000,0
1639814482.627,-874.512,-22.461,-52.246,46.387,0.000,0
1639814482.630,292.969,-19.043,-56.152,-86.426,0.000,0
1639814482.634,-934.570,-11.230,-26.367,-91.797,0.000,0
1639814482.638,-1000.000,-19.531,-19.043,-7.812,0.000,0
1639814482.642,-81.055,-23.926,-27.344,59.570,0.000,0
1639814482.646,-905.762,-32.227,-36.133,37.109,0.000,0
1639814482.650,483.398,-34.180,-31.250,-89.355,0.000,0
1639814482.654,-785.156,-26.367,-28.809,-106.445,0.000,0
1639814482.658,-1000.000,-22.461,-38.574,-33.203,0.000,0
1639814482.662,-224.121,-16.602,-35.156,37.109,0.000,0
1639814482.665,-984.863,-9.766,-35.645,57.129,0.000,0
1639814482.669,556.641,-22.949,-51.758,-53.711,0.000,0
1639814482.673,-751.953,-30.762,-45.898,-91.309,0.000,0
1639814482.677,-1000.000,-18.066,-21.484,-28.809,0.000,0
1639814482.681,-343.750,-15.137,-19.531,21.484,0.000,0
1639814482.685,892.090,-22.461,-31.738,61.523,0.000,0
1639814482.689,719.727,-35.156,-47.852,-35.645,0.000,0
1639814482.693,-529.297,-33.203,-40.527,-107.910,0.000,0
1639814482.697,-1000.000,-20.508,-34.180,-33.691,0.000,0
1639814482.700,-609.863,-13.184,-39.551,17.090,0.000,0
1639814482.704,682.617,-11.719,-44.922,56.152,0.000,0
1639814482.708,858.887,-19.043,-49.805,-17.578,0.000,0
1639814482.712,-398.926,-17.578,-41.016,-104.004,0.000,0
1639814482.716,-1000.000,-22.949,-34.668,-49.316,0.000,0
1639814482.720,-690.430,-19.043,-20.020,-6.836,0.000,0
1639814482.724,531.738,-7.812,-16.602,42.480,0.000,0
1639814482.727,952.637,-17.090,-40.527,-20.020,0.000,0
1639814482.731,-273.926,-24.414,-49.805,-121.094,0.000,0
1639814482.735,-1000.000,-14.648,-33.691,-65.918,0.000,0
1639814482.739,-791.992,-18.555,-21.484,1.465,0.000,0
1639814482.743,340.332,-28.320,-27.344,74.707,0.000,0
1639814482.747,-955.078,-24.902,-46.875,19.043,0.000,0
1639814482.751,-96.680,-28.320,-46.387,-106.445,0.000,0
1639814482.755,-1000.000,-33.691,-31.738,-67.383,0.000,0
1639814482.758,-946.777,-26.855,-36.133,3.906,0.000,0
1639814482.762,65.918,-12.207,-35.645,67.871,0.000,0
1639814482.766,-878.418,-5.371,-28.809,17.578,0.000,0
1639814482.770,136.230,-13.184,-35.645,-111.328,0.000,0
1639814482.774,-1000.000,-16.113,-28.320,-76.660,0.000,0
1639814482.778,-916.992,-13.672,-17.090,-10.742,0.000,0
1639814482.782,123.047,-16.602,-20.020,35.645,0.000,0
1639814482.786,-875.977,-25.879,-29.785,23.438,0.000,0
1639814482.790,300.293,-20.508,-40.039,-104.004,0.000,0
1639814482.793,-930.664,-13.672,-35.645,-111.816,0.000,0
1639814482.797,-1000.000,-18.555,-31.738,-29.785,0.000,0
1639814482.801,-32.227,-24.414,-40.527,38.574,0.000,0
1639814482.805,-907.715,-27.344,-53.223,40.039,0.000,0
1639814482.809,460.938,-20.996,-46.875,-79.102,0.000,0
1639814482.813,-807.617,-17.090,-29.785,-97.656,0.000,0
1639814482.816,-1000.000,-30.273,-36.133,-28.320,0.000,0
1639814482.820,-173.340,-33.203,-28.809,41.992,0.000,0
1639814482.824,-974.121,-21.973,-25.391,60.059,0.000,0
1639814482.828,626.465,-20.020,-29.785,-72.754,0.000,0
1639814482.832,-638.184,-27.832,-30.762,-104.492,0.000,0
1639814482.836,-1000.000,-16.113,-30.273,-15.137,0.000,0
1639814482.840,-323.730,-7.812,-29.297,36.621,0.000,0
1639814482.844,926.270,-13.672,-38.574,57.617,0.000,0
1639814482.847,663.086,-35.156,-55.176,-39.551,0.000,0
1639814482.851,-621.094,-39.551,-51.270,-103.027,0.000,0
1639814482.855,-1000.000,-32.715,-32.715,-42.480,0.000,0
1639814482.859,-548.828,-35.156,-34.180,0.977,0.000,0
1639814482.863,704.102,-31.738,-45.898,45.898,0.000,0
1639814482.867,858.398,-28.809,-52.246,-34.668,0.000,0
1639814482.871,-382.812,-22.461,-36.133,-121.582,0.000,0
1639814482.875,-1000.000,-22.949,-28.320,-57.129,0.000,0
1639814482.879,-749.512,-21.484,-28.320,-7.324,0.000,0
1639814482.883,477.051,-19.531,-47.363,32.715,0.000,0
1639814482.887,966.309,-31.738,-56.152,-38.086,0.000,0
1639814482.890,-266.602,-39.062,-38.574,-125.977,0.000,0
1639814482.894,-1000.000,-28.320,-31.250,-63.477,0.000,0
1639814482.898,-850.098,-21.973,-34.180,-4.883,0.000,0
1639814482.902,290.527,-16.602,-39.551,42.969,0.000,0
1639814482.906,-976.562,-22.949,-50.293,-10.742,0.000,0
1639814482.910,-187.012,-30.762,-53.711,-115.723,0.000,0
1639814482.913,-1000.000,-19.043,-35.645,-82.520,0.000,0
1639814482.917,-877.441,-20.020,-29.785,-14.648,0.000,0
1639814482.922,170.410,-25.391,-35.156,50.781,0.000,0
1639814482.926,-897.461,-19.043,-45.410,12.207,0.000,0
1639814482.930,62.500,-20.508,-58.105,-105.957,0.000,0
1639814482.933,-1000.000,-16.602,-44.434,-74.707,0.000,0
1639814482.937,-916.504,-23.926,-29.297,9.277,0.000,0
1639814482.941,124.023,-28.809,-37.598,72.266,0.000,0
1639814482.945,-892.090,-13.672,-48.828,22.461,0.000,0
1639814482.949,215.332,-8.301,-52.246,-124.023,0.000,0
1639814482.953,-980.957,-24.902,-48.340,-107.422,0.000,0
1639814482.956,-1000.000,-37.109,-41.504,-24.414,0.000,0
1639814482.960,-83.008,-22.461,-30.762,27.344,0.000,0
1639814482.964,-897.461,-25.879,-41.504,25.879,0.000,0
1639814482.969,368.164,-33.691,-50.293,-95.703,0.000,0
1639814482.972,-884.277,-24.902,-39.551,-120.605,0.000,0
1639814482.976,-1000.000,-19.043,-40.039,-47.852,0.000,0
1639814482.980,-276.855,-21.973,-49.316,14.648,0.000,0
1639814482.984,-994.629,-28.809,-48.828,22.461,0.000,0
1639814482.988,507.812,-31.738,-47.363,-83.984,0.000,0
1639814482.992,-773.926,-32.715,-45.898,-116.211,0.000,0
1639814482.995,-1000.000,-34.668,-37.109,-36.133,0.000,0
1639814482.999,-580.566,-41.016,-35.645,25.879,0.000,0
1639814483.003,775.391,-24.414,-34.668,38.086,0.000,0
1639814483.007,721.191,-14.160,-42.480,-74.707,0.000,0
1639814483.011,-585.449,-33.203,-53.223,-123.535,0.000,0
1639814483.015,-1000.000,-34.180,-45.410,-33.203,0.000,0
1639814483.019,-583.008,-24.902,-29.297,16.602,0.000,0
1639814483.023,722.168,-28.320,-38.574,41.992,0.000,0
1639814483.027,786.133,-33.691,-60.547,-41.016,0.000,0
1639814483.031,-486.328,-36.621,-45.898,-116.699,0.000,0
1639814483.034,-1000.000,-35.645,-35.645,-38.574,0.000,0
1639814483.038,-755.859,-28.809,-34.668,2.441,0.000,0
1639814483.042,463.379,-31.738,-43.457,36.133,0.000,0
1639814483.046,956.055,-31.250,-55.664,-22.461,0.000,0
1639814483.050,-276.855,-15.137,-34.180,-121.582,0.000,0
1639814483.054,-1000.000,-20.020,-40.039,-55.664,0.000,0
1639814483.057,-831.055,-32.715,-57.129,7.324,0.000,0
1639814483.062,318.359,-25.879,-45.410,64.453,0.000,0
1639814483.066,-958.496,-21.484,-43.945,7.324,0.000,0
1639814483.069,-132.324,-25.391,-46.875,-107.910,0.000,0
1639814483.073,-1000.000,-27.344,-48.828,-67.871,0.000,0
1639814483.077,-895.020,-29.785,-46.387,-10.742,0.000,0
1639814483.081,174.805,-28.320,-47.852,47.852,0.000,0
1639814483.085,-910.156,-23.926,-59.570,19.531,0.000,0
1639814483.089,-41.016,-37.109,-61.035,-95.215,0.000,0
1639814483.093,-1000.000,-30.762,-41.016,-74.219,0.000,0
1639814483.096,-954.590,-17.578,-32.715,-18.555,0.000,0
1639814483.100,27.832,-22.949,-42.480,35.156,0.000,0
1639814483.104,-871.094,-30.762,-49.316,20.020,0.000,0
1639814483.108,225.098,-32.715,-30.762,-102.051,0.000,0
1639814483.112,-976.562,-27.344,-26.855,-83.496,0.000,0
1639814483.116,-1000.000,-26.855,-34.668,-1.953,0.000,0
1639814483.120,-90.820,-25.391,-37.109,50.781,0.000,0
1639814483.124,-887.695,-20.996,-56.152,42.969,0.000,0
1639814483.128,369.141,-22.949,-58.105,-74.707,0.000,0
1639814483.131,-894.043,-30.762,-45.410,-74.707,0.000,0
1639814483.135,-1000.000,-32.715,-38.574,-0.488,0.000,0
1639814483.139,-173.340,-25.879,-24.414,29.785,0.000,0
1639814483.143,-960.938,-25.391,-26.367,46.387,0.000,0
1639814483.147,531.738,-30.273,-44.434,-65.918,0.000,0
1639814483.151,-729.492,-38.574,-46.875,-115.723,0.000,0
1639814483.155,-1000.000,-35.645,-41.504,-38.574,0.000,0
1639814483.159,-439.941,-32.715,-43.945,29.785,0.000,0
1639814483.163,872.559,-25.391,-55.176,62.988,0.000,0
1639814483.166,709.961,-20.508,-56.152,-47.363,0.000,0
1639814483.170,-563.965,-29.297,-41.504,-117.676,0.000,0
1639814483.174,-1000.000,-27.832,-31.250,-36.621,0.000,0
1639814483.178,-675.781,-30.762,-39.062,29.785,0.000,0
1639814483.182,619.141,-26.367,-47.852,52.734,0.000,0
1639814483.186,863.770,-16.113,-41.016,-52.246,0.000,0
1639814483.189,-406.738,-29.785,-40.039,-132.324,0.000,0
1639814483.193,-1000.000,-28.809,-42.969,-67.871,0.000,0
1639814483.197,-657.227,-17.090,-38.086,-12.695,0.000,0
1639814483.201,583.984,-17.578,-35.645,36.621,0.000,0
1639814483.205,927.246,-19.043,-45.410,-41.992,0.000,0
1639814483.209,-305.176,-24.902,-45.898,-145.508,0.000,0
1639814483.213,-1000.000,-25.879,-37.109,-80.078,0.000,0
1639814483.217,-796.875,-32.715,-27.832,-14.160,0.000,0
1639814483.221,345.215,-40.039,-33.691,39.062,0.000,0
1639814483.224,-963.379,-31.250,-45.410,-20.996,0.000,0
1639814483.228,-123.535,-20.508,-41.992,-132.324,0.000,0
1639814483.232,-1000.000,-30.273,-35.645,-87.402,0.000,0
1639814483.236,-896.973,-32.227,-34.180,-17.090,0.000,0
1639814483.240,186.035,-22.461,-35.645,51.270,0.000,0
1639814483.244,-891.602,-26.367,-45.410,-1.465,0.000,0
1639814483.244,-891.602,-26.367,-45.410,-1.465,0.000,0
1639814483.248,41.016,-40.039,-53.223,-125.977,0.000,0
1639814483.252,-1000.000,-38.574,-52.734,-97.168,0.000,0
1639814483.256,-942.383,-28.320,-43.457,-23.926,0.000,0
1639814483.260,85.449,-24.414,-38.086,38.574,0.000,0
1639814483.263,-877.441,-32.227,-51.270,2.930,0.000,0
1639814483.267,124.512,-32.715,-56.152,-111.328,0.000,0
1639814483.271,-1000.000,-15.137,-46.387,-91.309,0.000,0
1639814483.275,-1000.000,-17.578,-40.527,-32.715,0.000,0
1639814483.279,-124.023,-26.367,-44.434,29.297,0.000,1
1639814483.283,-895.020,-23.926,-47.852,32.227,0.000,0
1639814483.287,383.301,-15.625,-44.434,-83.984,0.000,0
1639814483.290,-876.953,-19.043,-43.945,-103.027,0.000,0
1639814483.295,-1000.000,-33.691,-49.805,-30.273,0.000,0
1639814483.299,-249.023,-31.738,-54.688,29.297,0.000,0
1639814483.303,-961.914,-25.391,-42.480,45.898,0.000,0
1639814483.306,537.598,-37.109,-41.992,-71.289,0.000,0
1639814483.310,-739.258,-41.016,-44.922,-127.441,0.000,0
1639814483.314,-1000.000,-30.762,-44.434,-51.270,0.000,0
1639814483.318,-432.129,-31.738,-38.574,5.371,0.000,0
1639814483.322,916.992,-39.551,-28.809,37.109,0.000,0
1639814483.326,594.238,-41.504,-49.316,-46.387,0.000,0
1639814483.329,-733.398,-33.203,-62.500,-103.027,0.000,0
1639814483.333,-1000.000,-20.508,-38.086,-34.180,0.000,0
1639814483.337,-540.039,-18.555,-23.438,27.344,0.000,0
1639814483.342,735.840,-20.508,-23.438,67.383,0.000,0
1639814483.345,797.852,-25.879,-34.180,-26.855,0.000,0
1639814483.349,-469.727,-33.691,-46.875,-107.910,0.000,0
1639814483.353,-1000.000,-25.879,-36.621,-33.691,0.000,0
1639814483.357,-746.582,-20.508,-30.762,25.391,0.000,0
1639814483.361,498.535,-26.855,-37.598,75.195,0.000,0
1639814483.365,909.668,-35.156,-44.922,-0.977,0.000,0
1639814483.369,-347.656,-39.062,-56.641,-110.840,0.000,0
1639814483.372,-1000.000,-33.203,-51.758,-51.758,0.000,0
1639814483.376,-774.902,-20.508,-28.320,13.672,0.000,0
1639814483.380,391.113,-14.160,-19.531,61.035,0.000,0
1639814483.384,-998.047,-18.555,-35.156,-4.395,0.000,0
1639814483.388,-197.754,-27.344,-33.203,-106.934,0.000,0
1639814483.392,-1000.000,-23.438,-10.254,-60.059,0.000,0
1639814483.396,-862.305,-17.578,-14.160,0.000,0.000,0
1639814483.400,225.586,-15.137,-35.645,49.805,0.000,0
1639814483.404,-920.898,-13.672,-41.992,3.906,0.000,0
1639814483.408,-51.270,-20.020,-43.457,-97.656,0.000,0
1639814483.411,-1000.000,-23.438,-34.668,-58.105,0.000,0
1639814483.415,-1000.000,-34.668,-37.598,6.836,0.000,0
1639814483.419,-80.078,-24.414,-42.480,73.242,0.000,0
1639814483.423,-871.582,-9.766,-30.762,34.180,0.000,0
1639814483.427,174.805,-16.113,-40.039,-92.285,0.000,0
1639814483.431,-1000.000,-20.020,-40.527,-85.449,0.000,0
1639814483.435,-1000.000,-19.531,-24.902,-19.043,0.000,0
1639814483.439,-58.594,-19.531,-20.996,55.176,0.000,0
1639814483.443,-883.301,-22.461,-38.574,54.199,0.000,0
1639814483.447,295.898,-20.508,-45.898,-62.012,0.000,0
1639814483.450,-937.012,-18.066,-28.809,-80.566,0.000,0
1639814483.454,-1000.000,-21.484,-27.344,-20.508,0.000,0
1639814483.458,-259.277,-16.113,-36.621,45.898,0.000,0
1639814483.462,-977.539,-17.090,-51.270,53.223,0.000,0
1639814483.466,536.621,-19.043,-42.480,-58.105,0.000,0
1639814483.470,-739.258,-5.859,-14.648,-82.520,0.000,0
1639814483.473,-1000.000,-14.648,-24.902,-17.090,0.000,0
1639814483.477,-378.418,-27.344,-37.598,38.086,0.000,0
1639814483.482,932.129,-23.926,-40.527,62.988,0.000,0
1639814483.486,691.406,-15.137,-44.922,-43.945,0.000,0
1639814483.490,-576.660,-14.160,-43.945,-94.238,0.000,0
1639814483.493,-1000.000,-15.625,-40.527,-30.762,0.000,0
1639814483.497,-466.309,-15.137,-34.180,14.648,0.000,0
1639814483.501,828.125,-18.066,-39.062,60.059,0.000,0
1639814483.505,749.023,-23.926,-45.410,-10.742,0.000,0
1639814483.509,-540.039,-23.926,-36.621,-81.543,0.000,0
1639814483.513,-1000.000,-12.207,-19.043,-31.738,0.000,0
1639814483.517,-571.289,-12.695,-19.043,21.973,0.000,0
1639814483.520,633.789,-17.578,-27.832,61.035,0.000,0
1639814483.524,955.078,-24.414,-41.992,-10.742,0.000,0
1639814483.529,-236.328,-23.438,-30.273,-104.004,0.000,0
1639814483.532,-1000.000,-20.996,-31.250,-54.688,0.000,0
1639814483.536,-714.355,-16.113,-37.109,6.836,0.000,0
1639814483.540,465.332,-12.695,-39.551,56.152,0.000,0
1639814483.544,-973.633,-26.855,-54.199,1.465,0.000,0
1639814483.548,-135.254,-34.180,-45.410,-101.562,0.000,0
1639814483.552,-1000.000,-24.902,-39.551,-56.641,0.000,0
1639814483.555,-825.195,-30.273,-33.691,-7.812,0.000,0
1639814483.559,293.945,-33.203,-24.414,45.898,0.000,0
1639814483.563,-924.316,-30.762,-38.574,12.207,0.000,0
1639814483.567,-59.082,-34.180,-46.875,-102.051,0.000,0
1639814483.571,-1000.000,-18.066,-32.227,-74.707,0.000,0
1639814483.575,-878.418,-20.996,-26.855,-10.742,0.000,0
1639814483.579,154.785,-37.109,-34.180,53.223,0.000,0
1639814483.583,-872.559,-23.438,-50.293,28.809,0.000,0
1639814483.587,187.500,-15.625,-50.781,-98.633,0.000,0
1639814483.590,-975.098,-19.043,-35.645,-90.820,0.000,0
1639814483.594,-1000.000,-34.180,-41.016,-17.090,0.000,0
1639814483.598,-163.086,-34.180,-42.480,41.504,0.000,0
1639814483.602,-886.719,-21.484,-35.156,19.043,0.000,0
1639814483.606,345.703,-26.367,-34.668,-91.797,0.000,0
1639814483.610,-919.434,-24.414,-22.949,-93.262,0.000,0
1639814483.613,-1000.000,-22.949,-25.391,-22.949,0.000,0
1639814483.617,-176.758,-21.973,-33.691,44.434,0.000,0
1639814483.622,-952.148,-31.250,-42.969,47.852,0.000,0
1639814483.626,505.371,-31.738,-41.992,-77.637,0.000,0
1639814483.630,-768.555,-22.949,-35.645,-110.840,0.000,0
1639814483.633,-1000.000,-30.273,-43.457,-37.598,0.000,0
1639814483.637,-264.648,-29.297,-42.969,7.324,0.000,0
1639814483.641,987.793,-29.785,-47.363,36.621,0.000,0
1639814483.645,646.973,-42.480,-52.246,-60.547,0.000,0
1639814483.649,-614.258,-29.297,-36.133,-119.141,0.000,0
1639814483.653,-1000.000,-13.184,-22.461,-47.363,0.000,0
1639814483.656,-544.922,-16.113,-35.645,17.578,0.000,0
1639814483.660,751.953,-11.719,-48.828,49.316,0.000,0
1639814483.664,827.148,-13.672,-47.852,-56.152,0.000,0
1639814483.669,-432.129,-21.973,-44.434,-119.629,0.000,0
1639814483.673,-1000.000,-21.973,-42.480,-41.504,0.000,0
1639814483.676,-582.520,-19.043,-26.855,28.809,0.000,0
1639814483.680,657.715,-22.461,-33.203,76.660,0.000,0
1639814483.684,897.949,-28.809,-52.246,-14.160,0.000,0
1639814483.688,-339.355,-32.227,-44.434,-112.305,0.000,0
1639814483.692,-1000.000,-26.367,-24.902,-50.781,0.000,0
1639814483.696,-694.336,-18.066,-17.090,16.113,0.000,0
1639814483.699,456.543,-27.832,-35.156,67.871,0.000,0
1639814483.703,-976.562,-22.461,-49.316,-2.930,0.000,0
1639814483.707,-120.605,-17.090,-25.391,-128.906,0.000,0
1639814483.711,-1000.000,-32.715,-16.602,-75.684,0.000,0
1639814483.715,-826.172,-27.344,-27.832,0.977,0.000,0
1639814483.719,286.133,-17.090,-27.344,70.312,0.000,0
1639814483.723,-907.227,-26.367,-28.320,16.602,0.000,0
1639814483.727,21.484,-33.691,-31.250,-120.117,0.000,0
1639814483.731,-1000.000,-26.367,-33.203,-76.172,0.000,0
1639814483.735,-919.922,-19.531,-43.457,-8.301,0.000,0
1639814483.739,125.488,-19.043,-49.316,41.504,0.000,0
1639814483.742,-878.906,-23.926,-50.293,15.137,0.000,0
1639814483.746,94.238,-30.273,-48.340,-89.355,0.000,0
1639814483.750,-1000.000,-31.250,-35.645,-91.309,0.000,0
1639814483.754,-935.547,-31.250,-20.020,-41.016,0.000,0
1639814483.758,42.969,-29.297,-32.227,33.691,0.000,0
1639814483.762,-886.230,-29.297,-44.434,21.973,0.000,0
1639814483.766,381.348,-24.902,-31.738,-101.562,0.000,0
1639814483.770,-867.676,-29.785,-32.227,-93.750,0.000,0
1639814483.774,-1000.000,-40.039,-43.945,-5.371,0.000,0
1639814483.778,-160.156,-31.738,-42.969,49.316,0.000,0
1639814483.781,-932.617,-28.320,-43.457,47.363,0.000,0
1639814483.785,503.418,-39.062,-51.758,-64.453,0.000,0
1639814483.789,-792.969,-47.363,-46.875,-93.262,0.000,0
1639814483.793,-1000.000,-42.969,-24.414,-13.184,0.000,0
1639814483.797,-208.496,-26.367,-2.930,44.434,0.000,0
1639814483.801,953.125,-22.949,-31.250,55.176,0.000,0
1639814483.805,634.766,-27.832,-48.828,-48.340,0.000,0
1639814483.809,-629.883,-23.926,-34.180,-98.145,0.000,0
1639814483.813,-1000.000,-17.578,-22.949,-25.391,0.000,0
1639814483.817,-446.777,-31.250,-20.508,33.203,0.000,0
1639814483.820,823.242,-40.039,-26.855,64.453,0.000,0
1639814483.824,755.859,-28.809,-32.715,-26.855,0.000,0
1639814483.828,-516.113,-28.809,-33.203,-113.281,0.000,0
1639814483.832,-1000.000,-24.414,-28.809,-53.711,0.000,0
1639814483.836,-714.355,-20.508,-38.086,19.531,0.000,0
1639814483.840,549.316,-24.902,-35.645,71.289,0.000,0
1639814483.844,934.570,-24.902,-24.414,-18.066,0.000,0
1639814483.847,-313.477,-23.926,-24.902,-115.723,0.000,0
1639814483.851,-1000.000,-22.949,-23.438,-52.734,0.000,0
1639814483.856,-736.328,-20.996,-16.113,6.836,0.000,0
1639814483.859,438.477,-17.578,-22.461,64.453,0.000,0
1639814483.863,988.281,-20.996,-42.969,-0.977,0.000,0
1639814483.867,-219.238,-29.297,-36.621,-105.957,0.000,0
1639814483.871,-1000.000,-25.879,-27.344,-48.828,0.000,0
1639814483.875,-805.176,-21.973,-29.785,1.465,0.000,0
1639814483.879,228.516,-27.832,-45.898,49.805,0.000,0
1639814483.882,-910.645,-20.996,-56.641,7.324,0.000,0
1639814483.886,10.742,-8.789,-30.273,-123.047,0.000,0
1639814483.890,-1000.000,-13.184,-23.926,-81.543,0.000,0
1639814483.894,-915.039,-17.090,-30.273,-13.184,0.000,0
1639814483.898,139.160,-10.742,-27.832,42.480,0.000,0
1639814483.902,-869.141,-10.254,-38.086,33.203,0.000,0
1639814483.906,176.270,-19.531,-34.668,-76.172,0.000,0
1639814483.910,-1000.000,-26.855,-25.879,-80.078,0.000,0
1639814483.914,-975.586,-26.855,-27.832,-16.113,0.000,0
1639814483.918,12.207,-20.508,-25.391,43.457,0.000,0
1639814483.921,-873.047,-24.414,-36.621,25.879,0.000,0
1639814483.925,236.816,-32.227,-47.852,-85.449,0.000,0
1639814483.929,-998.535,-22.461,-33.691,-83.984,0.000,0
1639814483.933,-992.188,-11.230,-14.648,-20.020,0.000,0
1639814483.937,-71.777,-14.648,-21.484,49.316,0.000,0
1639814483.941,-933.105,-21.484,-37.109,60.547,0.000,0
1639814483.944,520.020,-25.879,-44.922,-80.078,0.000,0
1639814483.949,-740.723,-24.414,-45.410,-106.445,0.000,0
1639814483.952,-1000.000,-23.438,-30.762,-13.672,0.000,0
1639814483.956,-270.996,-20.508,-25.879,39.551,0.000,0
1639814483.960,989.258,-18.555,-46.875,58.594,0.000,0
1639814483.964,642.090,-23.438,-52.734,-55.176,0.000,0
1639814483.968,-629.395,-32.715,-43.457,-105.957,0.000,0
1639814483.972,-1000.000,-28.809,-28.809,-21.484,0.000,0
1639814483.976,-447.754,-17.578,-26.367,22.461,0.000,0
1639814483.979,841.797,-20.020,-29.785,59.570,0.000,0
1639814483.983,715.820,-19.531,-39.551,-30.273,0.000,0
1639814483.987,-554.199,-18.066,-41.504,-104.492,0.000,0
1639814483.991,-1000.000,-23.926,-26.367,-35.156,0.000,0
1639814483.996,-590.820,-24.902,-28.320,23.438,0.000,0
1639814483.999,640.137,-21.973,-32.227,62.012,0.000,0
1639814484.003,909.180,-22.461,-36.133,-26.367,0.000,0
1639814484.007,-316.895,-18.555,-34.180,-112.793,0.000,0
1639814484.011,-1000.000,-20.020,-39.551,-41.992,0.000,0
1639814484.015,-789.062,-23.926,-42.480,9.766,0.000,0
1639814484.019,399.902,-16.113,-31.738,56.641,0.000,0
1639814484.022,999.512,-21.484,-40.527,-20.508,0.000,0
1639814484.026,-194.824,-29.297,-41.016,-128.418,0.000,0
1639814484.030,-1000.000,-28.320,-35.156,-55.176,0.000,0
1639814484.034,-814.941,-20.996,-26.855,1.465,0.000,0
1639814484.038,310.059,-15.137,-23.438,57.617,0.000,0
1639814484.042,-942.383,-23.926,-31.250,14.648,0.000,0
1639814484.046,-52.246,-30.273,-27.832,-101.074,0.000,0
1639814484.050,-1000.000,-25.879,-21.484,-69.336,0.000,0
1639814484.054,-868.652,-16.602,-21.484,-8.301,0.000,0
1639814484.058,194.824,-29.785,-29.297,58.105,0.000,0
1639814484.062,-887.695,-48.828,-42.969,19.531,0.000,0
1639814484.065,125.000,-32.715,-40.527,-105.957,0.000,1
1639814484.069,-1000.000,-9.277,-34.180,-84.473,0.000,0
1639814484.073,-1000.000,-10.742,-29.785,4.395,0.000,0
1639814484.077,-76.660,-26.367,-21.484,77.148,0.000,0
1639814484.081,-876.953,-24.414,-20.020,44.434,0.000,0
1639814484.085,343.750,-20.996,-27.344,-82.031,0.000,0
1639814484.089,-924.805,-24.902,-24.902,-81.055,0.000,0
1639814484.093,-1000.000,-19.043,-18.555,-4.883,0.000,0
1639814484.097,-72.266,-19.043,-17.578,52.246,0.000,0
1639814484.101,-916.016,-26.367,-28.320,54.688,0.000,0
1639814484.105,449.219,-32.227,-36.133,-53.711,0.000,0
1639814484.108,-812.988,-27.832,-36.133,-69.336,0.000,0
1639814484.112,-1000.000,-16.113,-28.809,-5.371,0.000,0
1639814484.116,-316.895,-17.578,-33.691,45.898,0.000,0
1639814484.120,959.473,-21.973,-48.340,71.777,0.000,0
1639814484.124,633.789,-20.020,-30.762,-46.387,0.000,0
1639814484.128,-633.789,-15.625,-12.695,-102.051,0.000,0
1639814484.131,-1000.000,-15.625,-15.625,-29.785,0.000,0
1639814484.136,-522.949,-12.207,-22.949,21.973,0.000,0
1639814484.140,804.688,-14.160,-24.414,54.199,0.000,0
1639814484.144,772.949,-31.738,-31.250,-40.527,0.000,0
1639814484.147,-497.559,-27.832,-35.645,-105.957,0.000,0
1639814484.151,-1000.000,-10.254,-32.227,-39.551,0.000,0
1639814484.155,-645.020,-14.648,-34.668,18.066,0.000,0
1639814484.159,638.672,-13.184,-31.738,64.941,0.000,0
1639814484.163,834.961,-15.137,-38.086,-32.227,0.000,0
1639814484.167,-454.102,-16.113,-46.875,-119.141,0.000,0
1639814484.171,-1000.000,-9.766,-30.762,-62.988,0.000,0
1639814484.174,-683.105,-21.484,-26.855,-12.695,0.000,0
1639814484.178,484.863,-21.484,-37.109,39.551,0.000,0
1639814484.183,-992.188,-16.602,-46.875,-23.926,0.000,0
1639814484.186,-160.156,-12.695,-37.598,-117.188,0.000,0
1639814484.190,-1000.000,-14.160,-28.809,-70.312,0.000,0
1639814484.194,-813.965,-20.508,-29.297,-6.348,0.000,0
1639814484.198,321.777,-17.090,-28.320,54.199,0.000,0
1639814484.202,-935.547,-20.020,-35.156,4.395,0.000,0
1639814484.206,-61.523,-28.809,-47.363,-99.609,0.000,0
1639814484.210,-1000.000,-35.645,-50.293,-51.270,0.000,0
1639814484.213,-878.906,-28.809,-34.180,4.883,0.000,0
1639814484.217,189.941,-23.438,-36.133,44.922,0.000,0
1639814484.221,-888.184,-30.762,-48.828,14.160,0.000,0
1639814484.225,119.141,-37.598,-41.016,-91.309,0.000,0
1639814484.230,-1000.000,-29.297,-36.621,-76.172,0.000,0
1639814484.233,-930.664,-21.973,-37.109,-13.672,0.000,0
1639814484.237,79.102,-33.203,-26.855,55.664,0.000,0
1639814484.241,-875.000,-31.738,-33.691,38.574,0.000,0
1639814484.245,299.316,-28.809,-41.504,-85.938,0.000,0
1639814484.249,-920.410,-28.809,-36.133,-93.262,0.000,0
1639814484.253,-1000.000,-31.250,-43.457,-11.230,0.000,0
1639814484.257,-224.609,-33.203,-49.805,59.570,0.000,0
1639814484.260,-927.734,-23.926,-41.992,33.691,0.000,0
1639814484.264,479.004,-32.715,-46.875,-92.285,0.000,0
1639814484.268,-813.477,-46.387,-41.504,-109.375,0.000,0
1639814484.272,-1000.000,-39.551,-39.551,-36.621,0.000,0
1639814484.276,-226.074,-25.879,-31.250,32.227,0.000,0
1639814484.280,998.047,-25.879,-39.551,50.293,0.000,0
1639814484.284,591.309,-31.250,-50.781,-63.965,0.000,0
1639814484.288,-674.316,-28.809,-30.762,-114.746,0.000,0
1639814484.292,-1000.000,-25.879,-28.809,-43.457,0.000,0
1639814484.295,-468.262,-31.738,-39.062,27.344,0.000,0
1639814484.299,810.547,-34.668,-51.270,75.684,0.000,0
1639814484.303,747.559,-26.855,-48.828,-28.320,0.000,0
1639814484.307,-507.812,-19.531,-29.785,-97.656,0.000,0
1639814484.311,-1000.000,-26.855,-30.273,-26.855,0.000,0
1639814484.315,-687.988,-34.180,-45.898,29.785,0.000,0
1639814484.319,608.887,-19.531,-44.434,78.613,0.000,0
1639814484.323,897.949,-17.090,-40.527,-18.066,0.000,0
1639814484.327,-365.234,-24.902,-39.062,-105.957,0.000,0
1639814484.331,-1000.000,-22.949,-33.691,-44.434,0.000,0
1639814484.334,-700.195,-27.344,-23.438,0.000,0.000,0
1639814484.338,518.555,-22.949,-34.180,59.082,0.000,0
1639814484.342,917.969,-26.855,-56.152,-1.953,0.000,0
1639814484.346,-332.031,-36.133,-47.852,-111.328,0.000,0
1639814484.350,-1000.000,-31.250,-28.320,-74.219,0.000,0
1639814484.354,-792.969,-28.809,-40.039,-28.320,0.000,0
1639814484.357,316.895,-27.832,-45.410,36.133,0.000,0
1639814484.361,-942.383,-28.320,-40.527,-2.930,0.000,0
1639814484.365,-67.383,-31.250,-42.480,-111.816,0.000,0
1639814484.370,-1000.000,-33.691,-39.062,-69.824,0.000,0
1639814484.374,-901.855,-31.738,-37.109,-5.371,0.000,0
1639814484.377,161.133,-22.949,-32.227,58.105,0.000,0
1639814484.381,-883.301,-21.973,-41.504,19.531,0.000,0
1639814484.385,82.031,-31.250,-61.035,-97.168,0.000,0
1639814484.389,-1000.000,-37.109,-51.758,-71.289,0.000,0
1639814484.393,-963.867,-26.367,-33.691,-13.184,0.000,0
1639814484.397,28.320,-10.742,-24.902,49.805,0.000,0
1639814484.401,-877.441,-13.672,-33.691,40.527,0.000,0
1639814484.404,220.215,-27.832,-32.715,-77.637,0.000,0
1639814484.408,-977.539,-23.438,-17.578,-80.078,0.000,0
1639814484.412,-1000.000,-20.020,-16.602,-12.207,0.000,0
1639814484.417,-121.094,-13.184,-22.461,56.152,0.000,0
1639814484.420,-916.992,-16.113,-40.527,45.410,0.000,0
1639814484.424,441.406,-27.832,-41.992,-92.773,0.000,0
1639814484.428,-814.941,-22.461,-20.996,-100.586,0.000,0
1639814484.432,-1000.000,-23.438,-20.996,-13.672,0.000,0
1639814484.436,-370.117,-20.996,-37.598,50.293,0.000,0
1639814484.440,966.309,-8.301,-33.691,71.289,0.000,0
1639814484.444,556.152,-8.301,-24.902,-45.898,0.000,0
1639814484.447,-743.652,-19.531,-30.762,-83.008,0.000,0
1639814484.451,-1000.000,-24.414,-32.715,-20.996,0.000,0
1639814484.455,-458.984,-13.672,-24.414,15.625,0.000,0
1639814484.459,847.168,-13.184,-25.879,51.758,0.000,0
1639814484.463,690.430,-21.973,-29.297,-37.598,0.000,0
1639814484.467,-592.773,-23.926,-30.762,-105.469,0.000,0
1639814484.471,-1000.000,-11.230,-25.391,-37.598,0.000,0
1639814484.475,-618.164,-4.395,-20.996,26.855,0.000,0
1639814484.479,651.855,-8.301,-37.598,75.684,0.000,0
1639814484.483,826.172,-15.137,-47.852,-12.207,0.000,0
1639814484.486,-436.523,-22.949,-40.527,-96.191,0.000,0
1639814484.490,-1000.000,-23.926,-34.668,-33.203,0.000,0
1639814484.494,-821.289,-25.879,-35.645,20.996,0.000,0
1639814484.498,396.973,-20.996,-32.227,65.918,0.000,0
1639814484.502,968.262,-17.578,-34.180,1.465,0.000,0
1639814484.506,-272.461,-24.414,-34.180,-102.539,0.000,0
1639814484.510,-1000.000,-25.391,-31.738,-53.711,0.000,0
1639814484.514,-791.504,-18.066,-16.602,-1.953,0.000,0
1639814484.518,347.656,-18.555,-12.695,47.852,0.000,0
1639814484.522,-982.422,-24.414,-45.410,9.277,0.000,0
1639814484.526,-136.230,-27.832,-53.711,-108.887,0.000,0
1639814484.529,-1000.000,-21.973,-53.223,-83.984,0.000,0
1639814484.533,-876.953,-18.555,-44.922,-8.301,0.000,0
1639814484.537,180.176,-29.297,-50.293,63.965,0.000,0
1639814484.541,-886.230,-31.250,-53.711,26.367,0.000,0
1639814484.545,125.977,-23.438,-28.809,-103.516,0.000,0
1639814484.549,-1000.000,-27.832,-28.320,-83.984,0.000,0
1639814484.553,-944.824,-34.180,-33.691,-19.531,0.000,0
1639814484.557,90.332,-42.480,-31.250,48.828,0.000,0
1639814484.561,-872.070,-35.645,-40.039,34.180,0.000,0
1639814484.565,283.691,-23.438,-42.480,-84.961,0.000,0
1639814484.568,-943.848,-19.531,-42.969,-88.379,0.000,0
1639814484.572,-1000.000,-18.066,-37.109,-23.926,0.000,0
1639814484.576,-64.453,-36.133,-34.180,39.551,0.000,0
1639814484.580,-914.062,-41.992,-50.293,42.480,0.000,0
1639814484.584,393.066,-31.250,-56.152,-79.590,0.000,0
1639814484.588,-863.281,-21.973,-40.527,-106.445,0.000,0
1639814484.592,-1000.000,-19.531,-29.785,-34.668,0.000,0
1639814484.595,-202.637,-26.367,-25.879,26.855,0.000,0
1639814484.599,991.699,-34.668,-41.992,52.246,0.000,0
1639814484.604,614.746,-22.949,-44.922,-55.664,0.000,0
1639814484.607,-645.996,-20.508,-29.785,-105.469,0.000,0
1639814484.611,-1000.000,-28.320,-29.785,-30.762,0.000,0
1639814484.615,-392.578,-26.855,-24.414,34.180,0.000,0
1639814484.619,897.949,-28.809,-26.367,63.477,0.000,0
1639814484.623,698.730,-34.180,-42.969,-50.781,0.000,0
1639814484.627,-573.242,-36.133,-58.594,-103.516,0.000,0
1639814484.631,-1000.000,-35.645,-52.734,-17.090,0.000,0
1639814484.634,-544.434,-25.879,-30.273,4.395,0.000,0
1639814484.638,710.938,-28.320,-36.621,45.898,0.000,0
1639814484.642,830.566,-37.109,-41.992,-21.484,0.000,0
1639814484.646,-411.133,-30.273,-25.391,-116.211,0.000,0
1639814484.650,-1000.000,-24.902,-14.648,-52.734,0.000,0
1639814484.654,-667.969,-30.762,-42.480,5.859,0.000,0
1639814484.658,526.855,-35.156,-53.223,53.223,0.000,0
1639814484.662,986.816,-37.109,-51.758,-9.277,0.000,0
1639814484.666,-202.637,-33.691,-41.504,-110.352,0.000,0
1639814484.669,-1000.000,-33.203,-30.273,-60.547,0.000,0
1639814484.673,-831.543,-40.039,-38.086,16.602,0.000,0
1639814484.677,273.438,-29.297,-34.668,66.406,0.000,0
1639814484.681,-917.480,-26.367,-45.410,-6.836,0.000,0
1639814484.685,-25.879,-30.273,-56.152,-116.211,0.000,0
1639814484.689,-1000.000,-19.043,-39.551,-68.359,0.000,0
1639814484.693,-819.824,-18.066,-26.855,-9.766,0.000,0
1639814484.697,278.320,-21.484,-27.832,55.664,0.000,0
1639814484.701,-908.691,-22.461,-48.828,27.832,0.000,0
1639814484.705,90.820,-28.320,-58.105,-105.957,0.000,0
1639814484.708,-1000.000,-26.367,-32.715,-83.984,0.000,0
1639814484.712,-913.574,-21.973,-20.996,-7.812,0.000,0
1639814484.716,108.398,-28.809,-46.875,55.664,0.000,0
1639814484.720,-878.906,-28.320,-64.453,28.320,0.000,0
1639814484.724,306.152,-20.996,-43.457,-104.004,0.000,0
1639814484.728,-916.016,-25.879,-23.438,-100.098,0.000,0
1639814484.731,-1000.000,-35.156,-33.203,-16.113,0.000,0
1639814484.735,-129.395,-27.344,-43.457,63.477,0.000,0
1639814484.739,-900.879,-19.531,-33.203,59.570,0.000,0
1639814484.744,438.477,-24.414,-28.320,-74.219,0.000,0
1639814484.748,-841.797,-28.320,-28.320,-100.586,0.000,0
1639814484.751,-1000.000,-27.344,-24.414,-27.832,0.000,0
1639814484.755,-180.176,-21.484,-19.043,37.598,0.000,0
1639814484.759,-967.773,-17.090,-23.926,58.105,0.000,0
1639814484.763,525.879,-14.160,-36.133,-49.805,0.000,0
1639814484.767,-743.652,-19.043,-32.227,-95.215,0.000,0
1639814484.771,-1000.000,-26.855,-31.250,-24.414,0.000,0
1639814484.775,-412.109,-24.902,-32.715,26.855,0.000,0
1639814484.778,864.746,-29.297,-37.109,56.641,0.000,0
1639814484.782,721.191,-38.574,-41.016,-48.828,0.000,0
1639814484.786,-539.062,-31.738,-37.109,-127.441,0.000,0
1639814484.791,-1000.000,-24.414,-33.691,-46.387,0.000,0
1639814484.794,-640.625,-25.391,-30.762,22.949,0.000,0
1639814484.798,666.992,-19.531,-24.414,59.082,0.000,0
1639814484.802,853.027,-22.949,-37.109,-29.785,0.000,0
1639814484.806,-409.180,-20.996,-43.945,-111.328,0.000,0
1639814484.810,-1000.000,-9.277,-33.203,-45.410,0.000,0
1639814484.814,-689.453,-12.207,-25.391,5.859,0.000,0
1639814484.818,564.453,-16.113,-31.250,58.105,0.000,0
1639814484.821,895.508,-28.320,-48.340,5.859,0.000,0
1639814484.825,-368.164,-30.762,-39.551,-99.121,0.000,0
1639814484.829,-1000.000,-19.043,-24.414,-68.848,0.000,0
1639814484.833,-769.043,-24.414,-33.203,-2.441,0.000,0
1639814484.837,352.539,-26.367,-24.902,53.711,0.000,0
1639814484.841,-940.918,-25.391,-27.832,-11.719,0.000,0
1639814484.845,-62.500,-22.461,-33.691,-118.164,0.000,0
1639814484.849,-1000.000,-28.809,-25.879,-82.520,0.000,0
1639814484.853,-875.977,-31.738,-25.879,-18.066,0.000,1
1639814484.857,206.055,-18.555,-20.996,49.316,0.000,0
1639814484.861,-896.973,-16.113,-32.227,6.348,0.000,0
1639814484.864,56.152,-23.438,-42.480,-107.910,0.000,0
1639814484.868,-1000.000,-30.273,-37.109,-72.266,0.000,0
1639814484.872,-890.137,-21.973,-31.250,-11.230,0.000,0
1639814484.876,159.180,-10.742,-23.438,46.387,0.000,0
1639814484.880,-882.324,-11.719,-32.715,30.762,0.000,0
1639814484.884,251.953,-16.113,-39.551,-96.191,0.000,0
1639814484.888,-951.172,-20.020,-16.602,-91.309,0.000,0
1639814484.892,-990.723,-22.461,-10.742,-26.367,0.000,0
1639814484.896,-25.391,-24.414,-19.531,32.715,0.000,0
1639814484.900,-898.438,-28.320,-38.574,46.387,0.000,0
1639814484.903,367.188,-34.668,-62.500,-69.336,0.000,0
1639814484.907,-862.305,-30.273,-54.199,-104.492,0.000,0
1639814484.911,-1000.000,-34.180,-48.828,-20.020,0.000,0
1639814484.915,-352.539,-34.180,-48.340,42.480,0.000,0
1639814484.919,-991.211,-19.531,-35.645,28.809,0.000,0
1639814484.923,562.012,-18.555,-36.621,-75.195,0.000,0
1639814484.927,-736.816,-24.902,-38.574,-112.793,0.000,0
1639814484.931,-1000.000,-24.902,-38.086,-53.711,0.000,0
1639814484.935,-381.836,-28.320,-28.809,10.742,0.000,0
1639814484.939,897.949,-33.203,-39.551,50.781,0.000,0
1639814484.943,667.480,-30.762,-60.547,-48.828,0.000,0
1639814484.946,-600.586,-34.180,-55.176,-123.047,0.000,0
1639814484.950,-1000.000,-38.574,-48.828,-52.734,0.000,0
1639814484.954,-625.977,-32.227,-42.969,12.207,0.000,0
1639814484.958,662.109,-34.668,-58.594,71.777,0.000,0
1639814484.962,827.637,-27.344,-56.152,-15.137,0.000,0
1639814484.966,-434.082,-22.949,-30.762,-121.582,0.000,0
1639814484.970,-1000.000,-25.879,-27.344,-54.199,0.000,0
1639814484.973,-715.820,-21.484,-31.250,-1.465,0.000,0
1639814484.978,525.391,-16.113,-36.621,41.992,0.000,0
1639814484.982,950.195,-20.020,-47.852,-19.531,0.000,0
1639814484.985,-277.832,-28.320,-58.105,-117.676,0.000,0
1639814484.989,-1000.000,-21.484,-50.293,-64.941,0.000,0
1639814484.993,-750.000,-17.578,-41.016,-10.254,0.000,0
1639814484.997,430.664,-19.531,-40.527,50.293,0.000,0
1639814485.001,982.422,-22.949,-46.875,11.230,0.000,0
1639814485.005,-218.750,-30.762,-35.156,-102.539,0.000,0
1639814485.009,-1000.000,-21.484,-14.648,-85.449,0.000,0
1639814485.012,-833.008,-12.207,-20.020,-11.230,0.000,0
1639814485.016,235.840,-6.836,-26.367,53.223,0.000,0
1639814485.020,-898.438,-14.648,-39.062,-0.977,0.000,0
1639814485.024,67.383,-24.902,-48.340,-105.469,0.000,0
1639814485.028,-1000.000,-25.879,-37.598,-81.543,0.000,0
1639814485.032,-933.594,-27.832,-29.297,-31.250,0.000,0
1639814485.036,104.492,-28.809,-22.461,37.598,0.000,0
1639814485.040,-868.164,-30.273,-35.156,21.484,0.000,0
1639814485.044,197.266,-34.668,-50.293,-100.586,0.000,0
1639814485.047,-1000.000,-36.133,-44.922,-82.520,0.000,0
1639814485.051,-1000.000,-23.926,-37.109,-11.719,0.000,0
1639814485.055,-48.828,-15.625,-36.133,41.016,0.000,0
1639814485.059,-894.043,-20.996,-44.434,42.480,0.000,0
1639814485.063,383.789,-24.902,-41.016,-67.871,0.000,0
1639814485.067,-872.070,-20.020,-27.832,-102.539,0.000,0
1639814485.071,-1000.000,-24.414,-26.855,-32.227,0.000,0
1639814485.075,-198.242,-25.391,-31.250,39.551,0.000,0
1639814485.079,-983.398,-12.695,-31.250,42.969,0.000,0
1639814485.083,551.270,-13.184,-37.598,-68.848,0.000,0
1639814485.086,-712.402,-19.531,-38.086,-93.262,0.000,0
1639814485.090,-1000.000,-25.879,-33.691,-7.324,0.000,0
1639814485.094,-478.027,-26.367,-25.879,49.805,0.000,0
1639814485.098,878.418,-16.113,-22.461,46.875,0.000,0
1639814485.102,703.613,-16.113,-29.785,-63.477,0.000,0
1639814485.106,-590.820,-25.879,-41.504,-107.910,0.000,0
1639814485.110,-1000.000,-22.461,-39.551,-44.434,0.000,0
1639814485.113,-529.297,-20.996,-27.832,2.441,0.000,0
1639814485.118,749.512,-29.785,-40.527,43.945,0.000,0
1639814485.122,796.875,-25.879,-56.152,-41.016,0.000,0
1639814485.126,-463.379,-18.555,-35.156,-124.512,0.000,0
1639814485.129,-1000.000,-20.996,-20.508,-56.641,0.000,0
1639814485.133,-710.938,-20.020,-27.344,3.418,0.000,0
1639814485.137,513.672,-20.996,-39.062,70.312,0.000,0
1639814485.141,911.621,-40.039,-49.805,-0.977,0.000,0
1639814485.145,-333.496,-38.574,-39.062,-114.258,0.000,0
1639814485.149,-1000.000,-22.949,-35.156,-51.758,0.000,0
1639814485.153,-851.562,-21.484,-32.715,16.113,0.000,0
1639814485.156,305.176,-11.230,-24.902,78.125,0.000,0
1639814485.160,-962.891,-8.301,-41.992,11.719,0.000,0
1639814485.165,-148.926,-25.391,-57.617,-110.840,0.000,0
1639814485.169,-1000.000,-26.855,-40.527,-66.895,0.000,0
1639814485.173,-871.582,-21.973,-27.832,-6.836,0.000,0
1639814485.176,249.512,-20.020,-32.227,57.617,0.000,0
1639814485.180,-987.305,-24.414,-47.852,20.508,0.000,0
1639814485.184,-136.719,-34.668,-56.152,-109.863,0.000,0
1639814485.188,-1000.000,-30.762,-32.227,-88.867,0.000,0
1639814485.192,-926.270,-30.762,-17.578,-28.320,0.000,0
1639814485.196,61.523,-41.016,-41.504,36.133,0.000,0
1639814485.200,-878.418,-40.039,-55.664,20.508,0.000,0
1639814485.203,185.059,-35.645,-45.410,-101.074,0.000,0
1639814485.207,-1000.000,-34.180,-38.086,-102.051,0.000,0
1639814485.212,-1000.000,-28.320,-30.273,-47.363,0.000,0
1639814485.216,-56.152,-28.809,-31.738,20.508,0.000,0
1639814485.220,-884.766,-25.391,-37.109,22.949,0.000,0
1639814485.223,378.906,-24.902,-37.598,-99.121,0.000,0
1639814485.227,-878.906,-25.391,-37.109,-111.328,0.000,0
1639814485.231,-1000.000,-26.367,-40.527,-33.691,0.000,0
1639814485.235,-232.910,-35.156,-41.016,17.578,0.000,0
1639814485.239,-958.984,-27.832,-46.387,40.527,0.000,0
1639814485.243,444.336,-23.926,-59.570,-56.152,0.000,0
1639814485.247,-839.844,-26.367,-39.551,-112.305,0.000,0
1639814485.250,-1000.000,-18.555,-18.555,-52.734,0.000,0
1639814485.254,-348.633,-19.043,-29.297,18.066,0.000,0
1639814485.259,904.297,-29.297,-34.180,51.758,0.000,0
1639814485.263,686.035,-32.227,-35.156,-45.410,0.000,0
1639814485.266,-586.914,-20.996,-30.273,-107.910,0.000,0
1639814485.270,-1000.000,-17.578,-28.320,-37.598,0.000,0
1639814485.274,-541.016,-20.996,-45.410,27.344,0.000,0
1639814485.278,748.535,-28.809,-56.152,83.496,0.000,0
1639814485.282,820.801,-33.203,-53.711,-15.625,0.000,0
1639814485.286,-434.082,-34.180,-46.875,-118.652,0.000,0
1639814485.290,-1000.000,-32.227,-27.344,-48.828,0.000,0
1639814485.293,-660.645,-22.461,-20.508,8.301,0.000,0
1639814485.297,603.027,-20.996,-23.926,56.641,0.000,0
1639814485.301,856.445,-33.203,-42.480,4.883,0.000,0
1639814485.306,-414.062,-31.738,-43.945,-92.285,0.000,0
1639814485.309,-1000.000,-16.113,-27.344,-53.711,0.000,0
1639814485.313,-777.832,-17.090,-37.598,16.602,0.000,0
1639814485.317,356.934,-26.855,-38.086,58.105,0.000,0
1639814485.321,-998.047,-26.855,-36.621,-1.953,0.000,0
1639814485.325,-172.363,-20.020,-44.434,-103.516,0.000,0
1639814485.329,-1000.000,-23.926,-47.363,-80.078,0.000,0
1639814485.333,-967.285,-28.809,-42.480,-11.230,0.000,0
1639814485.336,97.656,-18.066,-34.180,42.969,0.000,0
1639814485.340,-892.090,-16.113,-39.062,1.465,0.000,0
1639814485.344,1.953,-31.250,-48.340,-108.887,0.000,0
1639814485.348,-1000.000,-42.480,-39.551,-86.914,0.000,0
1639814485.352,-936.523,-35.156,-32.227,-25.391,0.000,0
1639814485.356,87.402,-25.391,-40.039,25.391,0.000,0
1639814485.360,-889.648,-30.273,-47.852,3.906,0.000,0
1639814485.364,141.113,-29.297,-44.434,-106.934,0.000,0
1639814485.368,-1000.000,-18.555,-37.598,-102.051,0.000,0
1639814485.372,-1000.000,-12.207,-27.344,-42.480,0.000,0
1639814485.375,-91.797,-23.438,-58.105,36.133,0.000,0
1639814485.379,-900.391,-28.809,-77.148,35.156,0.000,0
1639814485.383,361.816,-19.043,-40.039,-109.375,0.000,0
1639814485.387,-889.160,-22.949,-24.902,-133.789,0.000,0
1639814485.391,-1000.000,-29.785,-32.227,-60.059,0.000,0
1639814485.395,-215.332,-27.832,-38.574,12.695,0.000,0
1639814485.399,-950.195,-34.180,-38.086,29.785,0.000,0
1639814485.403,510.742,-36.133,-41.016,-85.449,0.000,0
1639814485.407,-769.531,-26.367,-37.598,-120.605,0.000,0
1639814485.411,-1000.000,-15.137,-36.621,-47.363,0.000,0
1639814485.414,-338.379,-15.625,-43.457,14.160,0.000,0
1639814485.418,982.910,-22.461,-47.852,42.480,0.000,0
1639814485.422,545.898,-26.855,-68.359,-60.059,0.000,0
1639814485.426,-743.652,-20.996,-56.152,-135.742,0.000,0
1639814485.430,-1000.000,-11.230,-16.602,-63.477,0.000,0
1639814485.434,-538.086,-20.020,-18.066,6.836,0.000,0
1639814485.438,756.836,-25.879,-41.016,50.781,0.000,0
1639814485.441,779.297,-24.902,-43.945,-44.434,0.000,0
1639814485.446,-481.445,-22.461,-34.180,-120.605,0.000,0
1639814485.449,-1000.000,-29.785,-30.273,-38.086,0.000,0
1639814485.453,-696.289,-38.574,-33.203,12.695,0.000,0
1639814485.457,563.965,-30.273,-44.434,46.875,0.000,0
1639814485.461,922.363,-28.320,-46.387,-32.227,0.000,0
1639814485.465,-330.566,-33.203,-49.316,-112.793,0.000,0
1639814485.469,-1000.000,-29.785,-52.734,-54.688,0.000,0
1639814485.473,-775.391,-24.902,-46.387,-6.836,0.000,0
1639814485.476,395.996,-28.320,-37.598,55.664,0.000,0
1639814485.480,973.633,-31.738,-38.086,5.859,0.000,0
1639814485.484,-226.074,-26.855,-35.645,-104.004,0.000,0
1639814485.488,-1000.000,-24.414,-23.926,-69.824,0.000,0
1639814485.493,-880.371,-32.227,-29.297,-7.324,0.000,0
1639814485.496,193.848,-30.762,-35.156,49.805,0.000,0
1639814485.500,-922.852,-27.344,-36.133,5.371,0.000,0
1639814485.504,-35.156,-30.762,-22.949,-111.328,0.000,0
1639814485.508,-1000.000,-34.180,-14.648,-72.754,0.000,0
1639814485.512,-979.980,-30.273,-25.879,-2.930,0.000,0
1639814485.516,13.184,-21.973,-39.551,55.664,0.000,0
1639814485.520,-879.395,-23.438,-58.105,26.855,0.000,0
1639814485.523,124.023,-23.926,-48.340,-97.656,0.000,0
1639814485.527,-1000.000,-17.578,-25.391,-86.426,0.000,0
1639814485.531,-992.188,-8.789,-25.879,-30.273,0.000,0
1639814485.535,-37.109,-10.254,-22.949,23.926,0.000,0
1639814485.539,-892.578,-20.020,-31.738,35.645,0.000,0
1639814485.543,320.801,-23.926,-43.457,-78.125,0.000,0
1639814485.547,-929.688,-14.160,-28.809,-97.168,0.000,0
1639814485.551,-1000.000,-11.719,-14.648,-19.043,0.000,0
1639814485.555,-133.789,-13.184,-20.996,52.734,0.000,0
1639814485.559,-971.191,-20.508,-40.039,62.012,0.000,0
1639814485.563,479.004,-26.855,-32.227,-63.965,0.000,0
1639814485.566,-781.250,-18.555,-10.742,-105.957,0.000,0
1639814485.570,-1000.000,-24.414,-30.273,-25.879,0.000,0
1639814485.574,-458.008,-27.344,-49.805,41.016,0.000,0
1639814485.578,918.457,-24.414,-36.621,62.988,0.000,0
1639814485.582,678.223,-30.762,-41.504,-39.062,0.000,0
1639814485.586,-620.605,-27.344,-38.086,-99.609,0.000,0
1639814485.590,-1000.000,-25.391,-31.738,-29.785,0.000,0
1639814485.594,-453.613,-31.738,-21.973,37.598,0.000,0
1639814485.598,814.453,-32.227,-25.879,85.938,0.000,0
1639814485.602,790.527,-27.832,-43.945,-8.301,0.000,0
1639814485.606,-458.008,-28.320,-42.480,-85.449,0.000,0
1639814485.609,-1000.000,-34.668,-37.109,-25.879,0.000,0
1639814485.613,-629.395,-38.086,-29.297,19.043,0.000,0
1639814485.617,603.516,-37.109,-37.109,90.332,0.000,0
1639814485.621,948.242,-31.250,-41.016,10.742,0.000,0
1639814485.625,-255.859,-24.414,-35.156,-105.957,0.000,0
1639814485.629,-1000.000,-29.297,-33.203,-47.852,0.000,0
1639814485.633,-714.355,-35.156,-26.855,10.742,0.000,0
1639814485.637,475.098,-28.809,-19.531,58.594,0.000,0
1639814485.641,-970.215,-28.320,-25.391,9.766,0.000,0
1639814485.645,-127.441,-35.645,-39.062,-79.102,0.000,0
1639814485.648,-1000.000,-29.297,-47.363,-43.945,0.000,0
1639814485.652,-840.332,-22.949,-41.504,13.672,0.000,0
1639814485.656,290.527,-31.738,-37.109,71.289,0.000,0
1639814485.660,-966.309,-36.621,-54.688,25.879,0.000,0
1639814485.664,-118.652,-26.855,-51.758,-91.309,0.000,0
1639814485.668,-1000.000,-16.602,-37.109,-88.379,0.000,0
1639814485.672,-895.996,-23.438,-41.992,-26.855,0.000,0
1639814485.675,118.652,-28.320,-38.574,64.453,0.000,0
1639814485.680,-879.395,-23.438,-44.922,29.297,0.000,0
1639814485.684,161.621,-25.391,-40.527,-108.887,0.000,0
1639814485.688,-1000.000,-25.391,-32.715,-88.379,0.000,0
1639814485.692,-1000.000,-28.320,-44.922,-4.883,0.000,0
1639814485.696,-38.574,-33.691,-51.270,55.664,0.000,0
1639814485.699,-878.906,-36.621,-57.129,39.062,0.000,0
1639814485.703,270.996,-45.898,-56.641,-81.543,0.000,0
1639814485.707,-958.496,-43.457,-39.062,-92.773,0.000,1
1639814485.711,-1000.000,-23.926,-27.832,-33.691,0.000,0
1639814485.715,-144.531,-20.996,-24.902,20.996,0.000,0
1639814485.719,-931.152,-33.691,-46.875,23.438,0.000,0
1639814485.723,434.570,-41.016,-59.082,-96.191,0.000,0
1639814485.727,-815.918,-27.832,-31.738,-126.953,0.000,0
1639814485.731,-1000.000,-17.090,-20.996,-41.504,0.000,0
1639814485.735,-332.520,-20.020,-21.973,34.668,0.000,0
1639814485.738,949.707,-15.625,-28.809,54.688,0.000,0
1639814485.742,619.629,-12.695,-44.434,-57.129,0.000,0
1639814485.746,-672.852,-19.531,-39.551,-107.910,0.000,0
1639814485.750,-1000.000,-28.809,-31.250,-45.410,0.000,0
1639814485.754,-506.836,-26.367,-31.738,3.418,0.000,0
1639814485.758,813.477,-21.973,-38.574,44.922,0.000,0
1639814485.762,785.156,-23.926,-41.992,-42.480,0.000,0
1639814485.765,-485.352,-39.551,-49.805,-109.863,0.000,0
1639814485.769,-1000.000,-43.457,-41.992,-47.363,0.000,0
1639814485.774,-547.852,-26.855,-17.090,-5.859,0.000,0
1639814485.777,682.129,-29.297,-28.320,45.898,0.000,0
1639814485.781,903.320,-29.297,-48.340,-35.156,0.000,0
1639814485.785,-311.035,-26.367,-49.805,-135.254,0.000,0
1639814485.789,-1000.000,-29.297,-41.016,-64.453,0.000,0
1639814485.793,-756.836,-23.926,-37.598,-6.836,0.000,0
1639814485.797,421.387,-19.531,-41.992,46.387,0.000,0
1639814485.801,997.070,-24.902,-44.922,-5.859,0.000,0
1639814485.804,-187.012,-19.043,-32.715,-125.488,0.000,0
1639814485.808,-1000.000,-16.602,-26.855,-77.148,0.000,0
1639814485.812,-847.168,-28.320,-45.898,-2.441,0.000,0
1639814485.816,268.555,-20.020,-33.203,53.223,0.000,0
1639814485.820,-910.645,-9.766,-21.484,5.859,0.000,0
1639814485.824,-9.277,-17.090,-37.598,-106.445,0.000,0
1639814485.828,-1000.000,-22.461,-42.480,-69.824,0.000,0
1639814485.832,-892.090,-16.113,-27.832,-8.301,0.000,0
1639814485.836,181.152,-16.602,-24.414,56.152,0.000,0
1639814485.839,-919.922,-31.250,-49.805,34.180,0.000,0
1639814485.843,47.852,-29.785,-53.223,-81.055,0.000,0
1639814485.847,-1000.000,-17.578,-39.062,-79.102,0.000,0
1639814485.851,-991.699,-34.180,-38.574,-19.043,0.000,0
1639814485.855,-51.758,-38.086,-37.109,54.199,0.000,0
1639814485.859,-887.695,-19.043,-42.480,26.367,0.000,0
1639814485.863,328.125,-20.996,-40.039,-109.375,0.000,0
1639814485.867,-922.363,-26.855,-41.016,-104.004,0.000,0
1639814485.871,-1000.000,-18.555,-38.086,-33.203,0.000,0
1639814485.875,-151.855,-13.672,-30.762,28.320,0.000,0
1639814485.879,-921.387,-19.531,-33.691,43.945,0.000,0
1639814485.883,468.750,-24.902,-35.645,-92.285,0.000,0
1639814485.886,-808.105,-30.273,-33.691,-119.141,0.000,0
1639814485.890,-1000.000,-35.645,-35.645,-36.621,0.000,0
1639814485.894,-336.426,-25.879,-42.480,19.043,0.000,0
1639814485.898,959.961,-22.949,-49.805,52.246,0.000,0
1639814485.902,565.918,-35.156,-47.852,-59.570,0.000,0
1639814485.906,-711.914,-30.762,-31.250,-124.512,0.000,0
1639814485.910,-1000.000,-19.043,-27.344,-47.363,0.000,0
1639814485.914,-483.887,-22.949,-33.203,25.391,0.000,0
1639814485.918,793.457,-33.203,-37.109,73.242,0.000,0
1639814485.922,772.461,-29.785,-38.086,-30.762,0.000,0
1639814485.926,-486.328,-27.832,-31.250,-115.234,0.000,0
1639814485.929,-1000.000,-39.551,-32.227,-49.316,0.000,0
1639814485.933,-669.922,-38.086,-46.875,10.742,0.000,0
1639814485.937,604.004,-19.531,-51.270,59.570,0.000,0
1639814485.941,897.461,-19.043,-47.852,-36.621,0.000,0
1639814485.945,-356.934,-34.180,-48.828,-122.070,0.000,0
1639814485.949,-1000.000,-34.180,-41.992,-44.922,0.000,0
1639814485.953,-716.797,-19.043,-29.785,-0.977,0.000,0
1639814485.956,470.703,-16.602,-43.457,51.270,0.000,0
1639814485.961,978.516,-28.320,-57.129,-5.859,0.000,0
1639814485.965,-218.750,-36.621,-43.457,-118.652,0.000,0
1639814485.969,-1000.000,-32.227,-40.039,-72.266,0.000,0
1639814485.972,-818.359,-24.902,-46.875,2.441,0.000,0
1639814485.976,287.598,-17.578,-44.922,55.664,0.000,0
1639814485.980,-964.844,-26.367,-50.293,0.000,0.000,0
1639814485.984,-100.586,-37.598,-46.387,-100.586,0.000,0
1639814485.988,-1000.000,-28.809,-35.645,-63.965,0.000,0
1639814485.992,-978.027,-22.461,-40.039,-8.301,0.000,0
1639814485.996,55.664,-15.625,-41.016,40.039,0.000,0
1639814485.999,-866.211,-12.207,-35.156,10.254,0.000,0
1639814486.003,114.258,-13.184,-34.180,-99.609,0.000,0
1639814486.008,-1000.000,-12.695,-31.250,-87.402,0.000,0
1639814486.012,-949.707,-14.648,-28.320,-26.855,0.000,0
1639814486.015,54.199,-16.113,-23.438,43.457,0.000,0
1639814486.019,-882.812,-29.297,-39.551,49.805,0.000,0
1639814486.023,271.484,-32.715,-45.898,-78.125,0.000,0
1639814486.027,-942.871,-25.879,-28.320,-85.449,0.000,0
1639814486.031,-1000.000,-17.578,-25.391,-9.766,0.000,0
1639814486.035,-159.180,-22.949,-38.574,36.133,0.000,0
1639814486.039,-951.172,-37.598,-43.457,31.250,0.000,0
1639814486.042,484.375,-35.645,-34.668,-96.680,0.000,0
1639814486.046,-791.504,-26.367,-37.109,-119.629,0.000,0
1639814486.050,-1000.000,-21.484,-37.109,-38.086,0.000,0
1639814486.054,-269.043,-26.855,-21.973,31.250,0.000,0
1639814486.058,994.629,-33.203,-40.039,49.805,0.000,0
1639814486.062,609.863,-34.180,-53.223,-62.988,0.000,0
1639814486.066,-683.594,-31.738,-38.574,-107.422,0.000,0
1639814486.070,-1000.000,-27.344,-36.133,-33.203,0.000,0
1639814486.074,-424.316,-31.738,-34.668,17.578,0.000,0
1639814486.078,825.684,-32.715,-29.785,44.434,0.000,0
1639814486.082,665.527,-31.738,-40.039,-34.668,0.000,0
1639814486.085,-622.070,-30.762,-25.879,-107.422,0.000,0
1639814486.089,-1000.000,-33.203,-12.207,-55.664,0.000,0
1639814486.093,-584.473,-32.227,-29.785,7.812,0.000,0
1639814486.097,646.973,-29.297,-41.016,55.176,0.000,0
1639814486.101,879.395,-35.645,-38.574,-27.832,0.000,0
1639814486.105,-352.539,-33.691,-35.156,-116.211,0.000,0
1639814486.109,-1000.000,-25.391,-24.902,-45.410,0.000,0
1639814486.113,-713.379,-23.926,-25.879,23.926,0.000,0
1639814486.117,506.836,-19.531,-37.109,74.219,0.000,0
1639814486.121,967.773,-20.508,-39.062,4.395,0.000,0
1639814486.124,-246.582,-25.391,-44.434,-93.262,0.000,0
1639814486.128,-1000.000,-23.926,-36.621,-33.203,0.000,0
1639814486.132,-766.113,-18.555,-17.578,6.836,0.000,0
1639814486.136,366.211,-18.555,-21.973,57.617,0.000,0
1639814486.140,-958.496,-20.996,-37.109,14.160,0.000,0
1639814486.144,-91.797,-24.902,-38.086,-97.656,0.000,0
1639814486.148,-1000.000,-27.832,-21.484,-58.105,0.000,0
1639814486.152,-864.258,-24.414,-20.020,0.000,0.000,0
1639814486.156,189.453,-18.066,-33.203,45.898,0.000,0
1639814486.160,-888.184,-20.508,-44.434,7.324,0.000,0
1639814486.163,113.770,-29.297,-34.180,-104.004,0.000,0
1639814486.167,-1000.000,-27.832,-26.367,-78.125,0.000,0
1639814486.171,-1000.000,-26.367,-38.086,11.719,0.000,0
1639814486.175,-81.055,-24.414,-33.203,60.059,0.000,0
1639814486.179,-865.234,-15.625,-23.926,20.508,0.000,0
1639814486.183,292.969,-18.555,-41.992,-82.031,0.000,0
1639814486.187,-955.566,-17.090,-38.574,-77.637,0.000,0
1639814486.190,-1000.000,-10.254,-17.578,-9.277,0.000,0
1639814486.195,-65.430,-13.184,-15.625,60.059,0.000,0
1639814486.199,-909.180,-28.320,-31.250,73.730,0.000,0
1639814486.203,395.508,-33.691,-38.574,-55.176,0.000,0
1639814486.207,-854.492,-30.762,-30.762,-99.121,0.000,0
1639814486.210,-1000.000,-26.855,-29.297,-31.738,0.000,0
1639814486.214,-311.523,-26.855,-26.855,41.016,0.000,0
1639814486.218,938.477,-20.996,-35.156,66.406,0.000,0
1639814486.222,606.934,-13.672,-43.457,-62.012,0.000,0
1639814486.226,-678.711,-17.578,-40.039,-113.281,0.000,0
1639814486.230,-1000.000,-27.344,-35.645,-32.715,0.000,0
1639814486.234,-434.082,-31.250,-27.832,28.809,0.000,0
1639814486.237,863.281,-24.414,-34.180,69.824,0.000,0
1639814486.242,743.164,-28.320,-51.758,-31.738,0.000,0
1639814486.246,-525.391,-31.250,-45.410,-104.492,0.000,0
1639814486.250,-1000.000,-26.855,-36.133,-42.480,0.000,0
1639814486.253,-530.762,-25.391,-36.133,2.441,0.000,0
1639814486.257,676.758,-21.484,-38.574,48.340,0.000,0
1639814486.261,763.672,-26.367,-56.152,-27.344,0.000,0
1639814486.265,-408.203,-29.785,-42.969,-96.191,0.000,0
1639814486.269,-1000.000,-27.344,-22.461,-27.832,0.000,0
1639814486.273,-723.145,-27.832,-39.062,18.555,0.000,0
1639814486.277,463.379,-34.668,-53.711,54.688,0.000,0
1639814486.280,991.211,-23.438,-42.480,-19.043,0.000,0
1639814486.284,-188.477,-13.184,-22.461,-116.211,0.000,0
1639814486.289,-1000.000,-27.832,-20.508,-58.594,0.000,0
1639814486.293,-788.086,-25.879,-25.391,2.930,0.000,0
1639814486.296,355.469,-18.066,-36.133,62.012,0.000,0
1639814486.300,-946.289,-31.250,-48.828,5.859,0.000,0
1639814486.304,-80.566,-38.086,-38.086,-108.887,0.000,0
1639814486.308,-1000.000,-41.504,-26.855,-74.219,0.000,0
1639814486.312,-894.531,-40.039,-26.367,-19.531,0.000,0
1639814486.316,203.613,-25.879,-26.855,36.621,0.000,0
1639814486.320,-946.777,-29.297,-57.129,6.836,0.000,0
1639814486.324,-53.223,-35.645,-64.941,-116.699,0.000,0
1639814486.327,-1000.000,-25.391,-25.879,-102.539,0.000,0
1639814486.331,-924.805,-23.926,-22.949,-31.250,0.000,0
1639814486.336,53.223,-22.949,-36.621,35.645,0.000,0
1639814486.339,-881.836,-25.879,-49.316,11.230,0.000,0
1639814486.343,285.156,-21.484,-49.805,-111.328,0.000,0
1639814486.347,-943.359,-15.625,-36.621,-92.773,0.000,0
1639814486.351,-1000.000,-23.926,-41.504,-16.602,0.000,0
1639814486.355,-100.098,-29.297,-44.434,49.805,0.000,0
1639814486.359,-913.086,-31.250,-41.504,55.664,0.000,0
1639814486.363,415.039,-34.180,-40.527,-55.664,0.000,0
1639814486.367,-860.840,-30.273,-41.992,-70.801,0.000,0
1639814486.370,-1000.000,-18.066,-20.996,-14.160,0.000,0
1639814486.374,-173.340,-10.742,-4.883,39.551,0.000,0
1639814486.378,-980.957,-26.367,-35.645,59.570,0.000,0
1639814486.382,584.473,-36.133,-44.434,-50.781,0.000,0
1639814486.386,-679.688,-26.367,-32.227,-104.004,0.000,0
1639814486.390,-1000.000,-25.391,-27.832,-39.551,0.000,0
1639814486.394,-393.066,-30.762,-36.133,19.531,0.000,0
1639814486.398,859.863,-27.832,-51.270,44.434,0.000,0
1639814486.402,694.824,-32.227,-56.152,-60.059,0.000,0
1639814486.406,-569.824,-33.203,-51.758,-125.977,0.000,0
1639814486.409,-1000.000,-38.086,-59.082,-42.480,0.000,0
1639814486.413,-644.043,-48.828,-62.500,14.160,0.000,0
1639814486.417,678.711,-33.203,-33.691,38.086,0.000,0
1639814486.421,847.168,-30.273,-34.180,-39.062,0.000,0
1639814486.425,-426.270,-31.250,-38.086,-113.281,0.000,0
1639814486.429,-1000.000,-20.996,-25.879,-57.129,0.000,0
1639814486.433,-707.520,-27.344,-27.344,-6.348,0.000,0
1639814486.437,503.418,-45.410,-44.434,43.945,0.000,0
1639814486.441,930.664,-36.621,-54.688,-21.484,0.000,0
1639814486.445,-292.480,-23.926,-42.969,-118.164,0.000,0
1639814486.449,-1000.000,-24.414,-34.668,-56.152,0.000,0
1639814486.452,-821.777,-28.320,-41.504,6.836,0.000,0
1639814486.456,299.316,-27.832,-51.758,72.266,0.000,0
1639814486.460,-953.125,-21.973,-40.039,10.742,0.000,0
1639814486.464,-87.402,-27.832,-42.480,-126.953,0.000,0
1639814486.468,-1000.000,-36.621,-58.594,-87.402,0.000,0
1639814486.472,-864.258,-29.785,-45.898,-10.254,0.000,0
1639814486.476,219.238,-21.484,-30.762,55.664,0.000,0
1639814486.480,-899.414,-17.090,-32.227,19.043,0.000,0
1639814486.484,37.109,-17.578,-38.086,-88.867,0.000,0
1639814486.488,-1000.000,-17.578,-30.273,-59.082,0.000,0
1639814486.491,-954.102,-22.949,-28.320,-10.254,0.000,0
1639814486.495,57.617,-34.668,-40.039,40.527,0.000,0
1639814486.499,-927.734,-40.527,-53.711,34.180,0.000,0
1639814486.503,65.430,-36.621,-51.758,-87.402,0.000,0
1639814486.507,-1000.000,-20.996,-25.391,-87.402,0.000,0
1639814486.511,-990.234,-14.160,-19.043,-5.371,0.000,0
1639814486.515,-95.703,-12.695,-23.438,54.199,0.000,0
1639814486.519,-913.086,-7.812,-32.715,49.316,0.000,0
1639814486.523,403.320,-5.371,-44.434,-70.312,0.000,0
1639814486.527,-856.445,-3.906,-35.156,-79.102,0.000,0
1639814486.530,-1000.000,-10.742,-31.738,-8.789,0.000,0
1639814486.534,-256.348,-11.230,-21.973,32.227,0.000,0
1639814486.538,-971.191,-8.301,-21.484,56.152,0.000,0
1639814486.542,511.719,-19.531,-35.156,-44.922,0.000,0
1639814486.546,-771.973,-21.973,-45.410,-74.707,0.000,0
1639814486.550,-1000.000,-8.301,-31.250,-9.277,0.000,0
1639814486.554,-396.484,-14.648,-14.648,29.785,0.000,0
1639814486.558,867.676,-26.367,-39.551,68.848,0.000,0
1639814486.561,691.406,-17.090,-58.594,-43.457,0.000,0
1639814486.565,-579.102,-5.859,-37.109,-112.305,0.000,0
1639814486.569,-1000.000,-6.348,-18.555,-26.855,0.000,1
