timestamps,TP9,AF7,AF8,TP10,Right AUX, Marker
1644798901.524,-18.555,-579.590,-32.715,-37.109,0.000,0
1644798901.528,-16.113,-239.258,-29.785,-33.203,0.000,0
1644798901.531,-32.715,-244.629,-31.738,-25.391,0.000,0
1644798901.535,-41.016,-625.977,-37.598,-3.418,0.000,0
1644798901.539,-34.180,-930.176,-36.133,-14.160,0.000,0
1644798901.543,-26.367,-908.203,-33.691,-30.273,0.000,0
1644798901.547,-22.461,-689.941,-36.133,-20.996,0.000,0
1644798901.551,-22.461,-500.977,-38.574,-16.113,0.000,0
1644798901.554,-28.320,-624.512,-42.480,-19.043,0.000,0
1644798901.558,-38.086,-869.629,-46.875,-41.504,0.000,0
1644798901.562,-43.945,-626.465,-43.945,-56.641,0.000,0
1644798901.566,-34.668,-772.949,-45.410,-31.738,0.000,0
1644798901.571,-35.645,-836.426,-47.363,-23.926,0.000,0
1644798901.575,-47.363,-550.781,-41.016,-38.574,0.000,0
1644798901.579,-47.852,-787.109,-36.621,-41.992,0.000,0
1644798901.582,-41.504,-638.184,-37.598,-40.039,0.000,0
1644798901.586,-38.086,-232.422,-37.598,-36.133,0.000,0
1644798901.590,-26.367,-283.203,-35.645,-29.785,0.000,0
1644798901.594,-31.738,-686.523,-39.062,-31.738,0.000,0
1644798901.598,-45.898,-974.609,-43.457,-46.875,0.000,0
1644798901.602,-35.156,-684.082,-40.527,-55.176,0.000,0
1644798901.606,-25.879,-307.129,-39.551,-39.551,0.000,0
1644798901.610,-30.762,-209.961,-41.504,-15.137,0.000,0
1644798901.613,-39.062,-224.609,-37.598,-7.812,0.000,0
1644798901.622,-51.758,-555.176,-34.668,-29.785,0.000,0
1644798901.626,-50.293,-562.988,-37.598,-51.758,0.000,0
1644798901.630,-39.551,-177.246,-41.992,-40.039,0.000,0
1644798901.634,-33.691,61.035,-37.598,-25.391,0.000,0
1644798901.638,-31.250,-229.492,-33.691,-22.461,0.000,0
1644798901.642,-36.621,-808.594,-32.715,-24.902,0.000,0
1644798901.646,-33.691,-1000.000,-36.621,-36.133,0.000,0
1644798901.650,-18.555,-809.570,-37.598,-33.203,0.000,0
1644798901.654,-14.160,-136.719,-36.621,-27.344,0.000,0
1644798901.658,-31.250,-20.996,-44.434,-37.598,0.000,0
1644798901.662,-44.434,-477.539,-43.945,-36.133,0.000,0
1644798901.666,-36.133,-584.473,-37.598,-13.672,0.000,0
1644798901.678,-29.297,-340.820,-33.203,-9.766,0.000,0
1644798901.682,-30.273,-93.262,-38.086,-12.695,0.000,0
1644798901.686,-35.645,-22.949,-46.387,-3.418,0.000,0
1644798901.691,-39.551,-380.371,-49.316,-21.973,0.000,0
1644798901.695,-32.715,-646.484,-44.922,-41.504,0.000,0
1644798901.699,-26.855,-500.977,-39.551,-33.203,0.000,0
1644798901.703,-29.297,-293.945,-41.016,-28.809,0.000,0
1644798901.707,-30.273,-342.773,-38.086,-32.715,0.000,0
1644798901.711,-46.387,-510.742,-35.645,-32.715,0.000,0
1644798901.716,-45.898,-760.254,-32.227,-37.598,0.000,0
1644798901.720,-20.508,-476.074,-31.738,-37.598,0.000,0
1644798901.724,-12.695,73.730,-34.668,-20.020,0.000,0
1644798901.739,-20.996,159.180,-34.180,-15.137,0.000,0
1644798901.743,-29.297,-456.543,-38.086,-16.113,0.000,0
1644798901.747,-39.062,-1000.000,-37.598,-17.578,0.000,0
1644798901.752,-31.250,-670.898,-33.691,-28.320,0.000,0
1644798901.756,-20.020,-187.988,-30.273,-22.461,0.000,0
1644798901.760,-26.367,-185.059,-29.297,-12.207,0.000,0
1644798901.765,-41.504,-569.824,-39.062,-17.578,0.000,0
1644798901.769,-48.340,-705.566,-44.434,-36.621,0.000,0
1644798901.774,-39.551,-396.484,-43.945,-46.387,0.000,0
1644798901.778,-24.414,91.797,-40.039,-28.809,0.000,0
1644798901.782,-17.090,205.078,-35.645,-20.996,0.000,0
1644798901.787,-28.320,-90.820,-38.086,-11.719,0.000,0
1644798901.803,-41.504,-533.691,-35.156,-19.043,0.000,0
1644798901.808,-32.227,-475.098,-29.785,-41.992,0.000,0
1644798901.812,-16.602,-3.418,-29.297,-31.250,0.000,0
1644798901.817,-19.531,176.758,-34.180,-16.113,0.000,0
1644798901.821,-40.039,-109.863,-42.969,-24.414,0.000,0
1644798901.826,-47.852,-735.840,-46.875,-40.527,0.000,0
1644798901.830,-38.086,-892.090,-40.039,-54.199,0.000,0
1644798901.835,-36.133,-449.219,-35.645,-52.246,0.000,0
1644798901.839,-25.391,-360.352,-40.039,-25.879,0.000,0
1644798901.844,-20.996,-852.539,-39.062,7.324,0.000,0
1644798901.848,-30.273,-913.574,-34.668,-6.836,0.000,0
1644798901.853,-27.344,-568.359,-29.785,-29.297,0.000,0
1644798901.870,-23.438,-146.484,-27.832,-34.180,0.000,0
1644798901.875,-28.320,187.500,-32.227,-33.691,0.000,0
1644798901.880,-35.645,63.965,-33.203,-18.066,0.000,0
1644798901.884,-41.992,-414.062,-34.180,-23.438,0.000,0
1644798901.889,-45.898,-560.059,-36.621,-61.523,0.000,0
1644798901.894,-33.203,-412.109,-34.180,-69.336,0.000,0
1644798901.898,-24.902,-225.586,-33.203,-42.480,0.000,0
1644798901.903,-36.133,-59.082,-27.344,-25.391,0.000,0
1644798901.908,-46.387,-334.961,-27.344,-23.926,0.000,0
1644798901.912,-48.340,-706.543,-30.273,-33.203,0.000,0
1644798901.917,-44.434,-423.828,-30.273,-27.832,0.000,0
1644798901.922,-36.621,115.723,-33.691,-6.348,0.000,0
1644798901.939,-33.203,98.633,-30.762,11.719,0.000,0
1644798901.944,-41.016,-375.000,-30.273,1.953,0.000,0
1644798901.949,-39.062,-608.398,-31.250,-29.297,0.000,0
1644798901.954,-32.715,-264.160,-25.879,-46.875,0.000,0
1644798901.959,-23.926,-634.277,-27.832,-24.414,0.000,0
1644798901.963,-20.996,-885.254,-29.297,-16.113,0.000,0
1644798901.968,-33.691,-746.094,-30.762,-26.367,0.000,0
1644798901.973,-42.480,-981.445,-36.621,-36.621,0.000,0
1644798901.978,-36.133,-498.047,-33.203,-49.316,0.000,0
1644798901.983,-26.855,115.234,-29.785,-33.691,0.000,0
1644798901.988,-25.391,178.223,-29.297,-21.973,0.000,0
1644798901.992,-31.250,-146.484,-32.227,-7.324,0.000,0
1644798902.003,-31.250,-630.859,-40.039,-9.277,0.000,0
1644798902.008,-32.227,-565.918,-38.086,-26.855,0.000,0
1644798902.012,-24.902,4.395,-34.180,-19.043,0.000,0
1644798902.017,-19.043,50.293,-38.574,-20.508,0.000,0
1644798902.022,-32.715,-312.500,-41.992,-27.832,0.000,0
1644798902.027,-41.504,-826.172,-40.039,-37.109,0.000,0
1644798902.032,-31.250,-795.410,-36.133,-47.363,0.000,0
1644798902.037,-20.996,-98.145,-33.203,-27.344,0.000,0
1644798902.042,-27.344,184.570,-29.785,-2.441,0.000,0
1644798902.046,-28.320,-105.957,-29.785,-6.836,0.000,0
1644798902.051,-28.320,-518.555,-30.762,-20.996,0.000,0
1644798902.056,-17.090,-942.871,-36.133,-25.391,0.000,0
1644798902.060,-3.418,-673.828,-37.109,-24.414,0.000,0
1644798902.065,-6.836,109.375,-29.297,-15.137,0.000,0
1644798902.070,-21.484,36.621,-32.715,5.859,0.000,0
1644798902.075,-38.086,-548.340,-41.504,-1.953,0.000,0
1644798902.080,-33.691,-682.617,-38.086,-22.461,0.000,0
1644798902.084,-20.996,-322.754,-37.109,-14.648,0.000,0
1644798902.089,-16.113,-198.242,-39.062,-9.766,0.000,0
1644798902.094,-13.184,-363.281,-38.086,-17.090,0.000,0
1644798902.099,-24.414,-598.633,-41.992,-31.738,0.000,0
1644798902.104,-20.996,-519.531,-38.574,-45.410,0.000,0
1644798902.109,-10.742,-132.324,-32.715,-38.086,0.000,0
1644798902.114,-6.836,187.012,-33.691,-14.160,0.000,0
1644798902.113,-10.742,89.844,-38.086,-0.488,0.000,0
1644798902.117,-29.297,-411.621,-40.039,-4.395,0.000,0
1644798902.122,-41.992,-595.703,-38.086,-21.973,0.000,0
1644798902.127,-34.668,-227.051,-41.016,-46.387,0.000,0
1644798902.132,-25.391,53.711,-41.016,-47.852,0.000,0
1644798902.137,-34.668,-213.379,-36.621,-29.297,0.000,0
1644798902.141,-42.480,-797.363,-41.992,-22.949,0.000,0
1644798902.146,-39.551,-956.055,-45.898,-44.922,0.000,0
1644798902.151,-30.273,-372.070,-40.039,-56.152,0.000,0
1644798902.156,-17.578,142.090,-32.227,-35.645,0.000,0
1644798902.161,-18.555,162.109,-29.297,-10.254,0.000,0
1644798902.165,-31.738,-240.234,-31.250,-3.418,0.000,0
1644798902.160,-32.227,-582.031,-34.180,-26.367,0.000,0
1644798902.165,-22.949,-297.363,-36.621,-49.316,0.000,0
1644798902.170,-21.484,128.418,-32.227,-34.180,0.000,0
1644798902.174,-31.250,155.762,-31.250,-23.438,0.000,0
1644798902.179,-40.039,-278.809,-38.086,-37.109,0.000,0
1644798902.184,-40.527,-835.449,-37.598,-32.715,0.000,0
1644798902.189,-36.133,-771.973,-27.344,-32.227,0.000,0
1644798902.193,-27.344,-285.156,-24.414,-27.832,0.000,0
1644798902.198,-28.809,50.781,-25.391,-18.066,0.000,0
1644798902.203,-39.062,-264.648,-29.785,-16.113,0.000,0
1644798902.208,-50.293,-751.465,-35.156,-21.484,0.000,0
1644798902.212,-39.551,-463.867,-36.133,-39.062,0.000,0
1644798902.204,-25.391,166.504,-27.832,-40.527,0.000,0
1644798902.209,-28.809,-122.559,-26.855,-13.672,0.000,0
1644798902.213,-31.738,-937.012,-32.715,0.488,0.000,0
1644798902.218,-41.992,-799.316,-36.133,-38.086,0.000,1
1644798902.223,-43.457,-437.012,-32.715,-48.340,0.000,0
1644798902.227,-28.809,-315.430,-24.902,-32.227,0.000,0
1644798902.232,-23.438,-144.531,-27.832,-19.531,0.000,0
1644798902.237,-27.344,-125.977,-35.156,-7.812,0.000,0
1644798902.241,-34.180,-481.934,-36.133,-16.602,0.000,0
1644798902.246,-42.480,-568.359,-36.133,-39.551,0.000,0
1644798902.251,-31.250,-152.832,-35.645,-20.508,0.000,0
1644798902.255,-20.508,206.055,-34.180,-18.555,0.000,0
1644798902.244,-28.320,4.395,-33.691,-41.016,0.000,0
1644798902.249,-36.621,-611.816,-29.785,-25.391,0.000,0
1644798902.253,-39.551,-665.039,-23.926,-36.621,0.000,0
1644798902.258,-35.156,-84.473,-25.391,-49.316,0.000,0
1644798902.262,-28.809,76.172,-28.320,-28.809,0.000,0
1644798902.267,-30.273,-384.766,-28.809,-17.578,0.000,0
1644798902.271,-44.434,-867.676,-33.203,-19.043,0.000,0
1644798902.276,-50.293,-918.945,-28.320,-35.645,0.000,0
1644798902.281,-31.738,-617.676,-27.832,-45.410,0.000,0
1644798902.285,-22.461,-712.402,-34.180,-19.043,0.000,0
1644798902.290,-31.738,-459.473,-34.668,-13.184,0.000,0
1644798902.294,-44.922,-254.883,-35.645,-26.855,0.000,0
1644798902.281,-43.945,-747.070,-36.133,-31.250,0.000,0
1644798902.286,-30.273,-947.754,-32.715,-21.973,0.000,0
1644798902.290,-29.297,-227.539,-28.320,-21.484,0.000,0
1644798902.295,-29.297,104.980,-29.785,-13.672,0.000,0
1644798902.299,-37.598,-574.219,-34.668,-7.324,0.000,0
1644798902.304,-41.016,-1000.000,-31.250,-23.926,0.000,0
1644798902.308,-36.621,-610.352,-24.414,-30.762,0.000,0
1644798902.313,-30.762,150.391,-23.926,-27.832,0.000,0
1644798902.317,-23.926,-335.938,-22.949,-15.625,0.000,0
1644798902.322,-35.645,-957.031,-25.879,-13.184,0.000,0
1644798902.326,-48.340,-620.605,-30.273,-36.133,0.000,0
1644798902.330,-37.598,-123.535,-28.320,-41.504,0.000,0
1644798902.319,-17.090,-427.734,-26.367,-20.020,0.000,0
1644798902.323,-30.273,-706.055,-30.762,-22.461,0.000,0
1644798902.327,-54.688,-158.203,-33.691,-31.250,0.000,0
1644798902.332,-47.852,-382.324,-36.621,-35.156,0.000,0
1644798902.336,-35.156,-889.648,-38.086,-41.504,0.000,0
1644798902.341,-26.367,-703.125,-39.062,-35.645,0.000,0
1644798902.345,-37.109,-159.180,-46.387,-32.715,0.000,0
1644798902.349,-46.387,-403.809,-43.457,-23.438,0.000,0
1644798902.354,-46.875,-924.316,-41.504,-28.320,0.000,0
1644798902.358,-40.527,-502.441,-40.527,-41.992,0.000,0
1644798902.362,-24.414,345.215,-35.156,-34.180,0.000,0
1644798902.367,-12.695,154.785,-37.109,-19.531,0.000,0
1644798902.355,-24.902,-762.207,-37.109,-11.230,0.000,0
1644798902.359,-48.828,-763.672,-35.645,-19.531,0.000,0
1644798902.364,-42.480,-167.969,-34.180,-38.574,0.000,0
1644798902.368,-20.508,-265.625,-40.039,-36.133,0.000,0
1644798902.372,-20.020,-414.062,-40.527,-27.832,0.000,0
1644798902.376,-30.762,-183.105,-35.156,-20.996,0.000,0
1644798902.381,-34.668,-552.246,-35.645,-27.344,0.000,0
1644798902.385,-28.320,-782.715,-40.039,-54.688,0.000,0
1644798902.389,-22.949,-215.332,-36.621,-46.387,0.000,0
1644798902.394,-19.043,345.215,-30.762,-19.043,0.000,0
1644798902.398,-15.625,66.895,-34.668,-5.859,0.000,0
1644798902.402,-31.250,-666.016,-40.527,-26.367,0.000,0
1644798902.392,-35.645,-786.133,-37.598,-50.293,0.000,0
1644798902.396,-28.320,45.410,-38.086,-52.734,0.000,0
1644798902.400,-26.367,288.086,-41.504,-35.645,0.000,0
1644798902.405,-26.855,-13.672,-40.039,-15.625,0.000,0
1644798902.409,-37.598,-288.574,-40.039,-12.695,0.000,0
1644798902.413,-38.574,-565.918,-41.992,-27.832,0.000,0
1644798902.417,-27.344,-436.035,-41.992,-38.086,0.000,0
1644798902.421,-20.996,-524.414,-40.039,-26.855,0.000,0
1644798902.426,-33.203,-237.793,-40.527,-20.508,0.000,0
1644798902.430,-45.410,-16.113,-41.016,-23.438,0.000,0
1644798902.434,-45.898,-539.551,-39.062,-39.062,0.000,0
1644798902.438,-41.504,-357.910,-36.133,-41.992,0.000,0
1644798902.429,-31.738,266.113,-32.715,-19.531,0.000,0
1644798902.433,-35.645,118.164,-37.598,-14.648,0.000,0
1644798902.438,-52.734,-492.188,-43.457,-20.020,0.000,0
1644798902.442,-54.688,-605.469,-44.434,-42.969,0.000,0
1644798902.446,-42.480,-161.621,-43.457,-60.059,0.000,0
1644798902.450,-33.203,51.270,-41.504,-51.270,0.000,0
1644798902.454,-29.785,-423.828,-44.434,-32.227,0.000,0
1644798902.458,-24.414,-838.379,-40.527,-9.277,0.000,0
1644798902.463,-42.480,-509.277,-35.156,-20.508,0.000,0
1644798902.467,-45.410,-253.906,-34.180,-31.250,0.000,0
1644798902.471,-24.902,-48.828,-35.645,-35.645,0.000,0
1644798902.475,-23.438,213.379,-38.574,-41.504,0.000,0
1644798902.467,-36.133,158.691,-40.527,-35.645,0.000,0
1644798902.471,-53.223,-378.906,-38.574,-33.203,0.000,0
1644798902.475,-46.875,-479.492,-38.086,-40.039,0.000,0
1644798902.479,-36.133,51.270,-36.133,-34.668,0.000,0
1644798902.483,-44.434,102.051,-34.180,-3.906,0.000,0
1644798902.488,-50.781,-368.652,-36.621,-9.277,0.000,0
1644798902.492,-51.758,-928.223,-43.945,-34.668,0.000,0
1644798902.496,-39.551,-716.797,-41.992,-44.922,0.000,0
1644798902.500,-23.926,63.477,-36.133,-45.410,0.000,0
1644798902.504,-30.762,140.625,-32.715,-34.180,0.000,0
1644798902.508,-36.621,-135.254,-35.156,-26.855,0.000,0
1644798902.512,-37.109,-325.195,-43.457,-28.320,0.000,0
1644798902.507,-33.691,-303.223,-41.504,-49.805,0.000,0
1644798902.511,-23.438,-173.828,-38.086,-46.387,0.000,0
1644798902.515,-24.414,0.977,-41.504,-29.297,0.000,0
1644798902.519,-41.504,136.230,-42.969,-30.762,0.000,0
1644798902.523,-47.363,-279.785,-41.504,-24.902,0.000,0
1644798902.527,-35.645,-838.867,-36.621,-21.973,0.000,0
1644798902.531,-21.484,-629.395,-31.250,-33.691,0.000,0
1644798902.535,-12.207,-26.855,-29.297,-32.715,0.000,0
1644798902.539,-21.484,63.477,-29.297,-17.578,0.000,0
1644798902.543,-39.062,-528.809,-32.227,-21.484,0.000,0
1644798902.547,-42.480,-716.797,-39.551,-41.992,0.000,0
1644798902.551,-26.367,-72.266,-39.551,-40.527,0.000,0
1644798902.548,-19.043,206.543,-35.156,-26.855,0.000,0
1644798902.552,-29.785,-10.742,-38.086,-35.156,0.000,0
1644798902.556,-42.969,-331.055,-40.039,-30.762,0.000,0
1644798902.560,-50.293,-422.852,-43.945,-32.227,0.000,0
1644798902.564,-29.785,-287.598,-41.504,-44.434,0.000,0
1644798902.568,-7.812,-256.836,-31.738,-34.668,0.000,0
1644798902.572,-22.949,-250.000,-28.320,-16.113,0.000,0
1644798902.576,-41.992,-525.391,-36.621,-10.742,0.000,0
1644798902.580,-48.828,-898.438,-42.480,-28.809,0.000,0
1644798902.584,-47.363,-911.133,-43.457,-41.504,0.000,0
1644798902.588,-28.320,-382.324,-40.039,-36.621,0.000,0
1644798902.592,-24.414,167.969,-41.016,-35.156,0.000,0
1644798902.588,-40.527,-277.832,-41.992,-19.531,0.000,0
1644798902.592,-48.340,-731.934,-37.598,-30.762,0.000,0
1644798902.596,-31.250,-320.801,-37.109,-52.734,0.000,0
1644798902.600,-12.207,141.113,-33.203,-29.297,0.000,0
1644798902.604,-20.508,11.230,-32.715,-22.461,0.000,0
1644798902.608,-37.598,-562.012,-39.062,-28.809,0.000,0
1644798902.612,-53.223,-774.414,-41.504,-42.480,0.000,0
1644798902.616,-48.828,-460.938,-40.527,-51.270,0.000,0
1644798902.620,-25.391,-280.273,-34.668,-29.297,0.000,0
1644798902.624,-36.621,-61.523,-34.180,-24.902,0.000,0
1644798902.628,-51.270,44.434,-34.180,-28.320,0.000,0
1644798902.632,-38.086,-338.379,-33.691,-32.715,0.000,0
1644798902.629,-25.879,-864.746,-34.668,-36.133,0.000,0
1644798902.633,-17.090,-657.227,-32.227,-25.879,0.000,0
1644798902.637,-15.625,140.625,-35.645,-28.320,0.000,0
1644798902.641,-26.855,-10.254,-38.574,-25.879,0.000,0
1644798902.645,-37.598,-659.180,-36.133,-25.879,0.000,0
1644798902.649,-34.180,-822.266,-34.668,-34.180,0.000,0
1644798902.653,-34.668,-355.469,-33.691,-33.691,0.000,0
1644798902.657,-31.738,-100.098,-37.109,-28.809,0.000,0
1644798902.661,-29.785,-634.766,-36.133,-20.508,0.000,0
1644798902.665,-36.621,-744.141,-33.203,-15.137,0.000,0
1644798902.669,-41.504,-391.113,-35.645,-42.480,0.000,0
1644798902.673,-33.691,-243.164,-41.016,-52.734,0.000,0
1644798902.670,-26.855,0.977,-43.457,-40.039,0.000,0
1644798902.673,-29.785,154.297,-40.039,-34.668,0.000,0
1644798902.677,-39.062,-223.633,-34.180,-33.203,0.000,0
1644798902.681,-39.551,-708.496,-32.715,-37.109,0.000,0
1644798902.685,-29.785,-620.117,-27.344,-31.738,0.000,0
1644798902.689,-33.691,-225.586,-25.391,-25.879,0.000,0
1644798902.693,-38.086,-186.035,-28.320,-29.297,0.000,0
1644798902.697,-31.250,-667.969,-32.715,-21.484,0.000,0
1644798902.701,-36.133,-932.617,-33.691,-25.879,0.000,0
1644798902.705,-44.434,-265.137,-26.367,-49.805,0.000,0
1644798902.709,-29.785,177.246,-23.926,-28.809,0.000,0
1644798902.713,-27.344,-24.414,-26.367,-3.906,0.000,0
1644798902.711,-38.574,-297.363,-33.691,0.977,0.000,0
1644798902.715,-35.156,-413.086,-35.645,-22.461,0.000,0
1644798902.719,-21.484,-307.129,-32.715,-43.457,0.000,0
1644798902.722,-21.484,-53.223,-34.668,-33.203,0.000,0
1644798902.726,-26.855,170.898,-35.645,-29.785,0.000,0
1644798902.730,-33.691,-304.688,-36.621,-36.621,0.000,0
1644798902.734,-33.691,-909.180,-36.621,-34.668,0.000,0
1644798902.738,-17.578,-986.328,-33.203,-23.926,0.000,0
1644798902.742,-17.090,-398.438,-26.367,-26.367,0.000,0
1644798902.746,-25.879,226.074,-27.832,-33.203,0.000,0
1644798902.750,-37.109,-172.363,-41.016,-20.020,0.000,0
1644798902.754,-44.434,-720.703,-46.387,-34.180,0.000,0
1644798902.753,-39.551,-354.492,-37.598,-51.758,0.000,0
1644798902.757,-29.297,177.246,-33.691,-34.180,0.000,0
1644798902.761,-20.508,54.688,-35.645,-19.043,0.000,0
1644798902.765,-24.414,-323.242,-37.598,-22.949,0.000,0
1644798902.769,-34.668,-529.297,-40.527,-30.762,0.000,0
1644798902.773,-34.668,-468.262,-41.016,-30.762,0.000,0
1644798902.777,-23.438,-619.141,-38.086,-23.926,0.000,0
1644798902.781,-15.137,-568.848,-33.203,-3.906,0.000,0
1644798902.785,-28.320,32.715,-32.715,-7.812,0.000,0
1644798902.789,-37.109,-330.566,-41.504,-38.086,0.000,0
1644798902.792,-31.738,-733.887,-37.109,-43.945,0.000,0
1644798902.796,-24.902,-188.965,-31.250,-32.715,0.000,0
1644798902.795,-15.137,286.621,-34.668,-23.926,0.000,0
1644798902.798,-16.602,33.691,-35.156,-17.578,0.000,0
1644798902.802,-32.227,-610.840,-40.527,-27.832,0.000,0
1644798902.806,-41.992,-612.305,-43.945,-39.062,0.000,0
1644798902.810,-27.832,-59.082,-41.016,-31.250,0.000,0
1644798902.814,-29.785,-23.926,-36.133,-4.883,0.000,0
1644798902.818,-37.109,-453.613,-34.180,3.906,0.000,0
1644798902.822,-38.086,-795.410,-35.645,-16.602,0.000,0
1644798902.826,-35.645,-560.059,-34.668,-40.039,0.000,0
1644798902.830,-13.672,-272.461,-29.297,-33.691,0.000,0
1644798902.834,-16.602,-529.297,-26.367,-3.906,0.000,0
1644798902.838,-34.180,-220.215,-25.391,-3.418,0.000,0
1644798902.837,-28.809,-211.914,-27.344,-10.254,0.000,0
1644798902.841,-21.973,-790.039,-26.367,-21.973,0.000,0
1644798902.845,-20.508,-519.043,-23.926,-22.461,0.000,0
1644798902.849,-15.137,180.176,-26.855,-10.254,0.000,0
1644798902.853,-18.066,228.516,-26.367,1.953,0.000,0
1644798902.857,-29.297,-523.926,-27.832,0.488,0.000,0
1644798902.861,-29.297,-983.398,-28.320,-29.297,0.000,0
1644798902.865,-25.391,-371.582,-25.879,-37.109,0.000,0
1644798902.869,-17.578,174.805,-22.949,-16.113,0.000,0
1644798902.873,-15.137,-173.340,-22.461,-0.488,0.000,0
1644798902.876,-26.855,-562.988,-25.879,0.000,0.000,0
1644798902.880,-25.879,-491.211,-26.367,-9.766,0.000,0
1644798902.880,-18.066,-345.215,-21.484,-22.949,0.000,0
1644798902.884,-16.113,-84.961,-26.855,-30.762,0.000,0
1644798902.888,-13.672,172.852,-27.344,-21.973,0.000,0
1644798902.892,-24.414,-4.395,-22.949,-12.207,0.000,0
1644798902.896,-31.738,-649.902,-26.367,-15.137,0.000,0
1644798902.900,-23.438,-847.656,-23.926,-20.020,0.000,0
1644798902.904,-13.184,-460.449,-27.344,-14.648,0.000,0
1644798902.908,-16.113,-175.293,-32.715,-19.531,0.000,0
1644798902.911,-28.320,-410.156,-36.133,-19.043,0.000,0
1644798902.915,-37.598,-959.961,-40.039,-12.695,0.000,0
1644798902.919,-27.344,-615.723,-40.039,-25.391,0.000,0
1644798902.923,-10.742,73.242,-31.250,-20.508,0.000,0
1644798902.923,-11.719,51.758,-29.785,-9.766,0.000,0
1644798902.927,-25.879,-225.098,-34.180,-10.254,0.000,0
1644798902.931,-44.922,-445.312,-35.156,-20.508,0.000,0
1644798902.935,-49.316,-411.621,-37.598,-33.691,0.000,0
1644798902.939,-31.250,-238.281,-40.527,-25.391,0.000,0
1644798902.943,-20.996,-259.277,-35.645,-3.906,0.000,0
1644798902.947,-26.367,-268.066,-27.344,-4.883,0.000,0
1644798902.951,-40.527,-560.059,-25.879,-19.043,0.000,0
1644798902.954,-40.527,-983.887,-29.297,-26.367,0.000,0
1644798902.958,-25.879,-724.121,-26.367,-20.996,0.000,0
1644798902.962,-10.742,125.977,-23.438,-10.254,0.000,0
1644798902.966,-13.184,122.559,-27.832,-14.648,0.000,0
1644798902.966,-33.203,-532.227,-29.785,-24.414,0.000,0
1644798902.970,-34.180,-572.266,-29.297,-29.785,0.000,0
1644798902.974,-29.297,-41.504,-29.785,-29.785,0.000,0
1644798902.978,-24.414,191.895,-26.367,-19.043,0.000,0
1644798902.982,-20.508,-117.188,-26.367,-10.742,0.000,0
1644798902.986,-30.762,-631.836,-29.297,-19.043,0.000,0
1644798902.990,-31.250,-881.348,-36.621,-42.969,0.000,0
1644798902.994,-30.273,-636.230,-43.945,-50.293,0.000,0
1644798902.997,-34.180,-647.461,-41.992,-41.016,0.000,0
1644798903.001,-34.180,-320.312,-38.086,-30.762,0.000,0
1644798903.005,-34.668,-354.004,-33.203,-30.762,0.000,0
1644798903.009,-35.156,-940.918,-31.738,-44.434,0.000,0
1644798903.010,-30.762,-543.945,-32.227,-43.457,0.000,0
1644798903.014,-18.555,192.383,-31.738,-31.250,0.000,0
1644798903.017,-17.578,265.625,-33.203,-20.996,0.000,0
1644798903.021,-31.738,-331.055,-35.156,-15.137,0.000,0
1644798903.025,-38.574,-700.684,-35.645,-28.320,0.000,0
1644798903.029,-24.414,-553.223,-36.133,-37.109,0.000,0
1644798903.033,-19.043,-164.062,-36.621,-27.344,0.000,0
1644798903.037,-20.508,-425.293,-33.691,-11.230,0.000,0
1644798903.041,-30.762,-845.215,-31.250,-0.488,0.000,0
1644798903.045,-37.598,-510.742,-25.879,-18.066,0.000,0
1644798903.048,-25.391,-314.453,-21.973,-35.156,0.000,0
1644798903.052,-20.020,-84.473,-22.949,-25.879,0.000,0
1644798903.053,-15.137,162.598,-26.367,-11.719,0.000,0
1644798903.057,-14.160,-145.996,-32.227,-8.301,0.000,0
1644798903.061,-26.367,-790.039,-31.250,-16.113,0.000,0
1644798903.065,-27.832,-659.180,-28.320,-34.668,0.000,0
1644798903.068,-12.695,-60.547,-26.367,-31.250,0.000,0
1644798903.072,-9.766,9.766,-32.227,-22.461,0.000,0
1644798903.076,-18.555,-391.113,-34.180,-12.207,0.000,0
1644798903.080,-28.809,-895.508,-35.156,-5.859,0.000,0
1644798903.084,-33.691,-628.906,-33.691,-25.391,0.000,0
1644798903.088,-22.461,132.324,-31.738,-17.578,0.000,0
1644798903.092,-21.484,110.352,-29.297,1.465,0.000,0
1644798903.095,-29.785,-217.285,-24.902,-14.160,0.000,0
1644798903.096,-35.156,-303.223,-23.438,-29.297,0.000,0
1644798903.100,-30.762,-295.410,-24.902,-33.203,0.000,0
1644798903.104,-19.043,-173.340,-28.809,-25.391,0.000,0
1644798903.108,-20.020,51.270,-26.855,-11.719,0.000,0
1644798903.112,-21.973,38.574,-29.297,-7.812,0.000,0
1644798903.116,-30.762,-548.828,-33.691,-11.230,0.000,0
1644798903.120,-17.578,-1000.000,-32.227,-15.137,0.000,0
1644798903.123,-6.348,-660.645,-27.344,-12.207,0.000,0
1644798903.127,-20.508,143.066,-22.949,-18.555,0.000,0
1644798903.131,-24.414,203.613,-25.879,-18.555,0.000,0
1644798903.135,-27.832,-526.855,-31.738,-9.766,0.000,1
1644798903.139,-29.297,-774.902,-29.297,-24.414,0.000,0
1644798903.140,-15.137,-108.887,-21.484,-31.738,0.000,0
1644798903.144,-9.766,144.043,-21.973,-14.160,0.000,0
1644798903.148,-12.695,-41.504,-23.438,-5.859,0.000,0
1644798903.151,-21.484,-332.031,-20.996,-1.465,0.000,0
1644798903.155,-28.320,-563.965,-25.391,-19.043,0.000,0
1644798903.159,-17.578,-459.961,-28.809,-38.086,0.000,0
1644798903.163,-12.695,-678.711,-28.320,-12.695,0.000,0
1644798903.167,-30.273,-608.887,-31.250,-11.719,0.000,0
1644798903.171,-38.574,-360.352,-32.227,-23.438,0.000,0
1644798903.174,-26.367,-723.633,-26.855,-29.297,0.000,0
1644798903.178,-18.555,-580.078,-23.926,-31.738,0.000,0
1644798903.182,-13.184,103.027,-26.855,-14.160,0.000,0
1644798903.184,-9.277,303.711,-25.391,-4.395,0.000,0
1644798903.188,-21.973,-192.383,-24.414,-3.418,0.000,0
1644798903.192,-33.203,-643.555,-27.832,-10.254,0.000,0
1644798903.196,-26.367,-270.508,-25.879,-22.949,0.000,0
1644798903.200,-21.484,147.461,-24.414,-24.902,0.000,0
1644798903.204,-29.297,-148.926,-24.414,-13.672,0.000,0
1644798903.207,-35.156,-507.812,-25.879,-9.766,0.000,0
1644798903.211,-39.551,-535.645,-27.344,-13.184,0.000,0
1644798903.215,-38.086,-340.820,-30.762,-19.531,0.000,0
1644798903.219,-24.414,-476.074,-29.785,-11.230,0.000,0
1644798903.223,-23.438,-607.422,-30.762,2.930,0.000,0
1644798903.227,-30.762,-243.652,-33.203,-8.301,0.000,0
1644798903.229,-38.574,-494.629,-30.762,-22.461,0.000,0
1644798903.233,-40.039,-660.645,-23.926,-27.344,0.000,0
1644798903.237,-22.949,-150.879,-24.414,-26.367,0.000,0
1644798903.240,-12.207,244.141,-29.297,-19.043,0.000,0
1644798903.244,-34.180,10.254,-30.273,-18.066,0.000,0
1644798903.248,-51.758,-730.469,-30.762,-18.555,0.000,0
1644798903.252,-41.016,-926.270,-27.832,-20.508,0.000,0
1644798903.256,-31.738,-380.859,-30.762,-33.691,0.000,0
1644798903.260,-26.367,-57.129,-28.809,-20.996,0.000,0
1644798903.263,-31.250,-567.871,-28.809,-16.113,0.000,0
1644798903.267,-52.246,-740.723,-30.762,-36.621,0.000,0
1644798903.271,-54.688,-423.340,-27.344,-39.551,0.000,0
1644798903.273,-36.133,-276.367,-26.855,-38.086,0.000,0
1644798903.277,-25.391,-224.121,-27.832,-34.668,0.000,0
1644798903.281,-31.250,-73.242,-30.762,-24.902,0.000,0
1644798903.285,-41.992,-206.543,-34.668,-23.438,0.000,0
1644798903.289,-48.828,-617.676,-29.297,-38.086,0.000,0
1644798903.293,-41.992,-569.336,-28.809,-48.340,0.000,0
1644798903.296,-20.996,-194.336,-33.203,-29.297,0.000,0
1644798903.300,-22.461,75.684,-34.180,-8.789,0.000,0
1644798903.304,-36.621,-508.301,-38.086,-8.789,0.000,0
1644798903.308,-33.691,-944.824,-38.574,-33.203,0.000,0
1644798903.312,-20.020,-334.961,-30.273,-41.504,0.000,0
1644798903.316,-20.020,78.125,-27.832,-19.043,0.000,0
1644798903.318,-28.809,-14.160,-31.250,-10.742,0.000,0
1644798903.322,-41.992,-256.348,-37.109,-13.184,0.000,0
1644798903.326,-45.898,-408.203,-38.086,-25.391,0.000,0
1644798903.329,-24.902,-338.867,-38.574,-31.250,0.000,0
1644798903.333,-24.414,-237.793,-45.410,-35.645,0.000,0
1644798903.337,-33.691,-181.152,-45.410,-34.180,0.000,0
1644798903.341,-38.086,-426.270,-39.551,-29.785,0.000,0
1644798903.345,-41.992,-868.652,-35.645,-38.086,0.000,0
1644798903.349,-35.645,-949.707,-32.227,-34.180,0.000,0
1644798903.352,-20.996,-386.719,-28.809,-28.320,0.000,0
1644798903.356,-12.695,203.613,-31.738,-27.344,0.000,0
1644798903.360,-16.602,-169.434,-41.504,-21.973,0.000,0
1644798903.363,-33.691,-719.727,-40.527,-28.320,0.000,0
1644798903.366,-41.016,-400.391,-38.086,-36.133,0.000,0
1644798903.370,-23.438,95.703,-40.039,-21.484,0.000,0
1644798903.374,-21.484,60.059,-35.645,-16.113,0.000,0
1644798903.378,-34.180,-209.961,-35.645,-22.949,0.000,0
1644798903.382,-44.434,-674.316,-41.016,-34.668,0.000,0
1644798903.386,-39.551,-780.273,-40.039,-42.969,0.000,0
1644798903.389,-25.879,-768.555,-40.039,-39.062,0.000,0
1644798903.393,-20.996,-645.996,-38.574,-26.855,0.000,0
1644798903.397,-29.785,-20.996,-34.668,-24.414,0.000,0
1644798903.401,-41.992,-344.727,-36.133,-33.691,0.000,0
1644798903.405,-32.715,-673.828,-37.598,-38.574,0.000,0
1644798903.407,-19.531,-212.402,-30.762,-32.715,0.000,0
1644798903.411,-30.273,270.996,-29.785,-23.926,0.000,0
1644798903.415,-34.180,38.086,-37.598,-8.301,0.000,0
1644798903.419,-42.480,-555.176,-41.992,-14.160,0.000,0
1644798903.422,-50.781,-606.934,-40.527,-36.133,0.000,0
1644798903.426,-35.645,-371.582,-39.062,-29.297,0.000,0
1644798903.430,-29.785,-249.512,-37.598,-16.602,0.000,0
1644798903.434,-33.691,-616.211,-33.691,-0.977,0.000,0
1644798903.438,-41.992,-745.117,-35.156,-14.648,0.000,0
1644798903.442,-40.039,-493.652,-32.227,-49.316,0.000,0
1644798903.445,-23.438,-433.594,-29.785,-44.922,0.000,0
1644798903.449,-12.207,-162.598,-31.250,-24.902,0.000,0
1644798903.452,-20.508,152.344,-29.785,-2.441,0.000,0
1644798903.456,-28.320,-155.273,-25.391,6.836,0.000,0
1644798903.459,-33.691,-724.609,-27.832,-19.043,0.000,0
1644798903.463,-31.250,-487.793,-28.320,-30.273,0.000,0
1644798903.467,-22.461,161.621,-27.832,-21.973,0.000,0
1644798903.471,-20.996,15.625,-34.668,-12.207,0.000,0
1644798903.475,-26.367,-653.809,-36.133,3.418,0.000,0
1644798903.479,-34.668,-928.223,-35.645,-10.742,0.000,0
1644798903.482,-34.668,-379.395,-38.574,-33.203,0.000,0
1644798903.486,-26.855,130.371,-35.645,-18.555,0.000,0
1644798903.490,-20.020,-173.340,-30.273,-10.254,0.000,0
1644798903.494,-27.344,-464.355,-31.738,-25.879,0.000,0
1644798903.496,-42.480,-430.176,-31.250,-42.969,0.000,0
1644798903.500,-34.668,-491.211,-24.902,-39.551,0.000,0
1644798903.504,-18.066,-246.582,-26.367,-24.414,0.000,0
1644798903.508,-24.902,127.930,-30.762,-20.508,0.000,0
1644798903.512,-41.504,-40.527,-35.156,-26.367,0.000,0
1644798903.515,-43.945,-715.820,-31.738,-28.320,0.000,0
1644798903.519,-37.598,-1000.000,-29.785,-30.762,0.000,0
1644798903.523,-34.180,-501.465,-31.250,-35.156,0.000,0
1644798903.527,-34.668,174.316,-33.203,-31.250,0.000,0
1644798903.531,-46.875,-101.562,-38.574,-26.367,0.000,0
1644798903.535,-53.711,-671.875,-36.621,-41.992,0.000,0
1644798903.538,-45.898,-428.711,-32.227,-55.664,0.000,0
1644798903.541,-34.180,149.414,-27.832,-42.969,0.000,0
1644798903.545,-33.691,129.395,-30.762,-30.273,0.000,0
1644798903.548,-43.457,-155.273,-38.086,-22.461,0.000,0
1644798903.552,-38.574,-411.621,-38.086,-31.250,0.000,0
1644798903.556,-34.180,-570.312,-35.156,-42.969,0.000,0
1644798903.560,-41.504,-485.840,-32.715,-24.414,0.000,0
1644798903.564,-45.410,-331.055,-32.715,-25.391,0.000,0
1644798903.568,-47.852,-74.219,-34.668,-29.785,0.000,0
1644798903.571,-48.828,-271.484,-34.180,-21.484,0.000,0
1644798903.575,-42.480,-844.727,-34.668,-35.645,0.000,0
1644798903.579,-34.668,-538.086,-31.250,-34.668,0.000,0
1644798903.583,-34.180,271.973,-32.227,-25.879,0.000,0
1644798903.586,-35.156,125.977,-36.133,-22.949,0.000,0
1644798903.590,-45.410,-547.852,-36.133,-30.273,0.000,0
1644798903.594,-43.457,-696.777,-31.738,-33.691,0.000,0
1644798903.598,-28.320,-155.273,-28.320,-20.020,0.000,0
1644798903.602,-20.996,122.070,-31.738,-24.902,0.000,0
1644798903.605,-30.762,-256.836,-34.668,-34.180,0.000,0
1644798903.609,-48.828,-716.797,-36.133,-37.109,0.000,0
1644798903.613,-54.199,-895.996,-35.156,-44.922,0.000,0
1644798903.617,-42.969,-665.039,-30.762,-45.410,0.000,0
1644798903.621,-28.320,-461.426,-30.273,-28.320,0.000,0
1644798903.624,-23.926,-62.500,-30.273,-22.949,0.000,0
1644798903.628,-34.180,-51.758,-29.785,-25.391,0.000,0
1644798903.632,-46.387,-668.457,-31.250,-32.715,0.000,0
1644798903.636,-37.109,-549.805,-29.785,-36.621,0.000,0
1644798903.639,-23.438,125.488,-33.203,-28.809,0.000,0
1644798903.643,-22.949,308.594,-35.156,-14.648,0.000,0
1644798903.647,-30.762,-290.527,-37.598,-2.930,0.000,0
1644798903.651,-34.668,-960.449,-41.016,-13.184,0.000,0
1644798903.655,-33.203,-623.047,-38.574,-32.227,0.000,0
1644798903.658,-20.996,131.348,-34.180,-28.809,0.000,0
1644798903.662,-24.902,-296.387,-34.180,-7.324,0.000,0
1644798903.666,-38.574,-868.164,-36.133,4.395,0.000,0
1644798903.670,-43.945,-691.406,-35.645,-8.789,0.000,0
1644798903.674,-35.645,-687.988,-34.180,-20.996,0.000,0
1644798903.677,-20.020,-257.324,-31.250,-15.625,0.000,0
1644798903.681,-26.367,190.430,-30.762,-14.648,0.000,0
1644798903.685,-41.504,65.430,-33.203,-22.461,0.000,0
1644798903.689,-42.480,-539.062,-39.551,-26.367,0.000,0
1644798903.692,-29.785,-726.562,-40.039,-27.344,0.000,0
1644798903.696,-21.484,-391.602,-37.598,-38.086,0.000,0
1644798903.700,-19.043,-155.762,-39.551,-41.016,0.000,0
1644798903.704,-23.926,-367.188,-38.086,-32.227,0.000,0
1644798903.708,-36.133,-888.672,-39.062,-13.672,0.000,0
1644798903.711,-38.574,-632.812,-35.645,-10.742,0.000,0
1644798903.715,-23.926,83.984,-28.320,-18.066,0.000,0
1644798903.719,-15.137,129.395,-30.273,-15.137,0.000,0
1644798903.722,-27.344,-118.164,-31.738,-22.949,0.000,0
1644798903.726,-35.645,-438.477,-32.227,-26.855,0.000,0
1644798903.730,-30.762,-611.328,-33.691,-26.367,0.000,0
1644798903.734,-18.555,-282.715,-29.297,-21.973,0.000,0
1644798903.738,-6.836,77.148,-25.879,-15.137,0.000,0
1644798903.742,-17.578,-48.340,-29.785,-10.254,0.000,0
1644798903.745,-41.992,-652.344,-35.156,-12.207,0.000,0
1644798903.749,-45.898,-1000.000,-40.039,-27.344,0.000,0
1644798903.753,-29.297,-689.941,-33.691,-31.738,0.000,0
1644798903.757,-20.508,29.297,-30.762,-24.414,0.000,0
1644798903.761,-25.391,104.492,-33.203,-22.949,0.000,0
1644798903.764,-42.969,-421.387,-33.203,-22.949,0.000,0
1644798903.768,-62.988,-600.098,-31.250,-38.574,0.000,0
1644798903.772,-48.828,-106.934,-28.809,-48.828,0.000,0
1644798903.775,-27.832,180.664,-31.738,-29.297,0.000,0
1644798903.779,-32.227,-10.254,-32.227,-27.832,0.000,0
1644798903.783,-41.992,-369.141,-30.273,-22.461,0.000,0
1644798903.787,-34.668,-743.652,-32.227,-24.414,0.000,0
1644798903.791,-25.879,-656.250,-32.715,-51.758,0.000,0
1644798903.795,-24.902,-733.887,-31.250,-29.297,0.000,0
1644798903.798,-32.715,-455.566,-33.691,-20.020,0.000,0
1644798903.802,-36.621,-83.008,-35.645,-30.762,0.000,0
1644798903.806,-36.133,-612.305,-31.738,-33.691,0.000,0
1644798903.810,-46.387,-545.898,-36.621,-48.340,0.000,0
1644798903.813,-40.039,132.324,-39.062,-43.945,0.000,0
1644798903.817,-28.809,318.359,-34.668,-35.645,0.000,0
1644798903.821,-31.250,-220.215,-35.645,-29.297,0.000,0
1644798903.825,-40.039,-674.316,-34.668,-38.574,0.000,0
1644798903.828,-36.621,-369.141,-34.180,-48.828,0.000,0
1644798903.832,-23.438,-72.266,-36.621,-30.762,0.000,0
1644798903.836,-19.043,-435.059,-36.621,-12.207,0.000,0
1644798903.840,-24.414,-930.176,-36.621,-3.906,0.000,0
1644798903.844,-39.551,-796.387,-36.133,-22.949,0.000,0
1644798903.848,-33.691,-441.406,-33.691,-39.551,0.000,0
1644798903.851,-16.113,-130.371,-33.691,-32.227,0.000,0
1644798903.855,-19.531,167.480,-32.715,-24.902,0.000,0
1644798903.858,-24.902,138.672,-40.527,-26.855,0.000,0
1644798903.862,-32.227,-395.996,-41.016,-27.832,0.000,0
1644798903.866,-38.574,-640.137,-36.621,-33.691,0.000,0
1644798903.870,-24.414,-139.648,-36.621,-35.645,0.000,0
1644798903.874,-5.371,241.699,-27.344,-23.438,0.000,0
1644798903.877,-16.602,-180.664,-29.297,-16.113,0.000,0
1644798903.881,-30.762,-881.348,-35.156,-15.625,0.000,0
1644798903.885,-32.715,-930.176,-31.738,-27.344,0.000,0
1644798903.889,-26.855,-197.266,-28.809,-32.715,0.000,0
1644798903.893,-18.555,55.176,-27.832,-16.602,0.000,0
1644798903.897,-22.949,-291.504,-33.691,-14.160,0.000,0
1644798903.900,-35.645,-551.270,-39.551,-20.020,0.000,0
1644798903.904,-40.039,-533.691,-35.645,-21.484,0.000,0
1644798903.907,-24.414,-344.727,-30.762,-30.273,0.000,0
1644798903.911,-19.043,-100.586,-28.809,-19.531,0.000,0
1644798903.915,-27.832,107.422,-30.762,-11.719,0.000,0
1644798903.919,-40.039,-244.141,-41.016,-21.484,0.000,0
1644798903.923,-38.086,-839.355,-43.457,-31.738,0.000,0
1644798903.927,-31.250,-689.453,-35.156,-29.785,0.000,0
1644798903.930,-32.227,96.191,-32.715,-20.996,0.000,0
1644798903.934,-29.785,243.652,-35.156,-22.461,0.000,0
1644798903.938,-37.109,-484.375,-37.109,-22.949,0.000,0
1644798903.942,-41.992,-818.848,-34.668,-33.203,0.000,0
1644798903.946,-31.738,-237.793,-28.320,-45.410,0.000,0
1644798903.950,-22.949,126.953,-31.738,-42.969,0.000,0
1644798903.953,-20.508,-97.656,-35.156,-29.785,0.000,0
1644798903.957,-33.203,-443.848,-34.180,-21.484,0.000,0
1644798903.961,-45.898,-609.863,-35.156,-25.879,0.000,0
1644798903.965,-42.480,-458.008,-33.691,-30.273,0.000,0
1644798903.969,-28.809,-302.246,-31.250,-20.020,0.000,0
1644798903.973,-20.020,-259.766,-28.809,-7.812,0.000,0
1644798903.976,-26.367,-409.668,-31.250,-3.418,0.000,0
1644798903.980,-31.738,-841.309,-35.156,-22.461,0.000,0
1644798903.984,-29.785,-834.473,-35.156,-38.574,0.000,0
1644798903.988,-20.996,-130.371,-33.203,-26.367,0.000,0
1644798903.992,-19.531,292.969,-34.668,-23.926,0.000,0
1644798903.996,-33.691,-200.195,-34.668,-28.320,0.000,0
1644798903.999,-37.598,-687.012,-32.715,-25.879,0.000,0
1644798904.003,-28.809,-436.035,-33.691,-34.668,0.000,0
1644798904.007,-26.855,33.691,-36.621,-43.457,0.000,0
1644798904.011,-24.902,12.695,-36.133,-22.461,0.000,0
1644798904.015,-23.438,-392.090,-34.180,-13.184,0.000,0
1644798904.018,-32.227,-796.387,-36.133,-33.203,0.000,0
1644798904.022,-40.039,-754.395,-32.715,-50.781,0.000,0
1644798904.026,-27.344,-724.609,-31.738,-34.668,0.000,0
1644798904.030,-23.438,-732.422,-36.133,-7.812,0.000,0
1644798904.034,-27.832,-71.289,-37.598,-11.230,0.000,0
1644798904.038,-23.438,-310.547,-37.109,-13.184,0.000,0
1644798904.041,-29.785,-680.664,-37.109,-24.902,0.000,1
1644798904.045,-28.809,-188.965,-38.086,-47.852,0.000,0
1644798904.049,-20.508,265.625,-38.574,-42.480,0.000,0
1644798904.053,-23.926,120.117,-40.039,-26.855,0.000,0
1644798904.057,-41.504,-524.414,-37.109,-29.297,0.000,0
1644798904.061,-40.527,-848.633,-36.133,-22.461,0.000,0
1644798904.064,-32.227,-500.000,-38.574,-18.555,0.000,0
1644798904.068,-26.367,-233.398,-36.133,-25.391,0.000,0
1644798904.072,-27.832,-618.652,-35.645,-19.531,0.000,0
1644798904.076,-41.016,-686.035,-37.109,-25.879,0.000,0
1644798904.080,-40.039,-401.855,-35.156,-34.180,0.000,0
1644798904.083,-27.832,-335.449,-31.250,-35.645,0.000,0
1644798904.087,-9.277,-75.684,-26.367,-34.180,0.000,0
1644798904.091,-20.020,208.984,-28.809,-25.879,0.000,0
1644798904.095,-46.875,-115.234,-34.668,-21.484,0.000,0
1644798904.099,-53.223,-669.434,-40.039,-31.250,0.000,0
1644798904.103,-38.574,-509.277,-40.527,-36.621,0.000,0
1644798904.106,-19.531,-148.926,-34.668,-24.414,0.000,0
1644798904.110,-25.879,-110.352,-35.156,-22.461,0.000,0
1644798904.114,-38.086,-569.336,-36.621,-19.531,0.000,0
1644798904.118,-41.504,-928.711,-36.133,-25.391,0.000,0
1644798904.122,-42.480,-319.336,-40.039,-50.781,0.000,0
1644798904.125,-39.551,136.230,-38.574,-45.410,0.000,0
1644798904.129,-33.203,28.809,-34.668,-21.484,0.000,0
1644798904.133,-28.809,-184.082,-32.227,-14.160,0.000,0
1644798904.137,-44.434,-367.188,-31.250,-22.949,0.000,0
1644798904.141,-49.805,-375.977,-29.785,-33.203,0.000,0
1644798904.145,-37.598,-150.879,-24.902,-26.855,0.000,0
1644798904.148,-35.156,91.797,-27.344,-2.930,0.000,0
1644798904.152,-37.109,-246.582,-34.668,-0.488,0.000,0
1644798904.156,-37.598,-823.242,-36.133,-16.113,0.000,0
1644798904.160,-32.227,-959.473,-37.109,-27.344,0.000,0
1644798904.164,-33.691,-325.195,-35.156,-33.691,0.000,0
1644798904.167,-30.273,216.309,-29.785,-23.438,0.000,0
1644798904.171,-29.785,-144.043,-36.133,-27.344,0.000,0
1644798904.175,-33.691,-605.957,-41.016,-32.715,0.000,0
1644798904.179,-30.273,-384.766,-40.527,-42.480,0.000,0
1644798904.183,-25.391,47.852,-39.551,-49.316,0.000,0
1644798904.187,-12.695,-44.922,-36.133,-37.598,0.000,0
1644798904.190,-23.438,-166.992,-38.086,-26.855,0.000,0
1644798904.194,-45.898,-342.773,-38.086,-29.785,0.000,0
1644798904.198,-33.203,-584.961,-31.738,-36.621,0.000,0
1644798904.202,-11.230,-742.188,-29.297,-31.738,0.000,0
1644798904.206,-15.625,-624.512,-26.367,-16.602,0.000,0
1644798904.209,-32.227,28.809,-26.855,-10.742,0.000,0
1644798904.213,-42.480,-233.887,-31.250,-12.695,0.000,0
1644798904.217,-41.016,-698.730,-29.297,-16.113,0.000,0
1644798904.221,-25.879,-328.613,-25.879,-9.766,0.000,0
1644798904.225,-19.043,196.289,-31.250,-3.906,0.000,0
1644798904.228,-20.020,131.348,-35.156,-17.090,0.000,0
1644798904.232,-25.391,-450.195,-35.645,-44.434,0.000,0
1644798904.236,-27.832,-610.840,-38.086,-65.430,0.000,0
1644798904.240,-17.090,-180.176,-33.691,-51.270,0.000,0
1644798904.244,-5.859,-36.621,-28.809,-25.879,0.000,0
1644798904.247,-14.648,-573.242,-29.785,-21.973,0.000,0
1644798904.251,-36.621,-978.516,-38.086,-27.832,0.000,0
1644798904.255,-42.969,-734.375,-40.039,-39.062,0.000,0
1644798904.259,-33.203,-462.891,-34.668,-47.852,0.000,0
1644798904.263,-18.555,-173.828,-30.273,-37.109,0.000,0
1644798904.267,-23.926,194.336,-30.273,-20.508,0.000,0
1644798904.270,-40.527,-11.719,-34.668,-14.648,0.000,0
1644798904.274,-40.527,-637.695,-41.016,-14.160,0.000,0
1644798904.278,-32.227,-608.887,-41.016,-17.578,0.000,0
1644798904.282,-27.344,74.219,-37.598,-18.555,0.000,0
1644798904.285,-25.391,311.035,-37.598,-13.672,0.000,0
1644798904.289,-31.250,-427.734,-39.062,-17.090,0.000,0
1644798904.293,-48.828,-949.219,-38.574,-39.062,0.000,0
1644798904.297,-40.527,-442.871,-34.180,-40.039,0.000,0
1644798904.301,-17.090,-165.039,-32.227,-14.160,0.000,0
1644798904.305,-20.020,-400.391,-31.250,-15.625,0.000,0
1644798904.308,-32.227,-492.676,-30.273,-14.648,0.000,0
1644798904.312,-44.922,-442.383,-34.668,-26.855,0.000,0
1644798904.317,-40.527,-490.234,-38.086,-41.016,0.000,0
1644798904.320,-20.020,-221.191,-33.203,-18.066,0.000,0
1644798904.324,-16.113,115.234,-31.250,-14.160,0.000,0
1644798904.328,-37.109,58.105,-35.156,-17.578,0.000,0
1644798904.332,-50.781,-468.750,-38.574,-27.832,0.000,0
1644798904.336,-39.062,-834.961,-39.551,-37.109,0.000,0
1644798904.339,-24.414,-531.250,-37.109,-29.297,0.000,0
1644798904.343,-17.578,-126.465,-34.180,-24.902,0.000,0
1644798904.347,-29.785,-235.840,-36.621,-12.695,0.000,0
1644798904.351,-44.434,-831.055,-40.527,-9.277,0.000,0
1644798904.355,-39.551,-682.129,-36.621,-41.016,0.000,0
1644798904.359,-26.367,-220.215,-38.086,-42.969,0.000,0
1644798904.363,-19.043,-203.613,-40.527,-22.461,0.000,0
1644798904.367,-23.926,-190.430,-39.062,-15.137,0.000,0
1644798904.370,-31.250,-297.852,-37.598,-23.438,0.000,0
1644798904.374,-26.367,-613.770,-31.738,-39.551,0.000,0
1644798904.378,-19.531,-549.316,-32.227,-33.691,0.000,0
1644798904.382,-20.996,-299.316,-33.203,-20.020,0.000,0
1644798904.386,-28.809,-165.527,-33.203,-16.602,0.000,0
1644798904.390,-36.133,-223.145,-34.180,-23.438,0.000,0
1644798904.393,-35.645,-799.805,-37.598,-25.391,0.000,0
1644798904.397,-30.273,-742.676,-37.598,-21.484,0.000,0
1644798904.401,-21.484,138.672,-31.738,-21.484,0.000,0
1644798904.405,-23.926,237.793,-35.156,-25.879,0.000,0
1644798904.409,-34.180,-332.031,-35.645,-25.391,0.000,0
1644798904.413,-34.668,-562.500,-34.668,-21.484,0.000,0
1644798904.417,-31.250,-368.164,-35.645,-22.461,0.000,0
1644798904.420,-22.949,-49.805,-30.762,-4.883,0.000,0
1644798904.424,-19.531,-18.066,-30.273,-5.859,0.000,0
1644798904.428,-25.879,-494.141,-32.715,-25.879,0.000,0
1644798904.432,-34.180,-890.137,-34.180,-25.879,0.000,0
1644798904.436,-25.391,-702.637,-36.621,-35.156,0.000,0
1644798904.440,-17.578,-654.297,-32.227,-29.785,0.000,0
1644798904.443,-28.809,-277.832,-29.297,-18.555,0.000,0
1644798904.447,-29.297,7.812,-34.180,-28.809,0.000,0
1644798904.451,-29.785,-645.996,-38.086,-41.016,0.000,0
1644798904.455,-30.273,-630.371,-34.180,-46.387,0.000,0
1644798904.459,-29.297,115.234,-29.785,-32.227,0.000,0
1644798904.463,-31.250,344.238,-29.785,-19.043,0.000,0
1644798904.467,-38.086,-155.273,-28.320,-16.113,0.000,0
1644798904.470,-43.457,-710.938,-30.762,-29.297,0.000,0
1644798904.474,-29.297,-678.711,-33.203,-44.434,0.000,0
1644798904.478,-17.578,-215.820,-33.691,-35.645,0.000,0
1644798904.482,-20.020,-421.387,-36.133,-12.207,0.000,0
1644798904.486,-25.391,-768.066,-36.133,-15.137,0.000,0
1644798904.490,-35.156,-479.492,-35.645,-39.062,0.000,0
1644798904.493,-34.668,-392.090,-33.691,-46.387,0.000,0
1644798904.497,-22.461,-167.480,-25.879,-29.297,0.000,0
1644798904.501,-14.160,157.227,-23.926,-8.789,0.000,0
1644798904.505,-20.996,197.266,-32.715,-21.484,0.000,0
1644798904.509,-30.762,-387.695,-37.598,-20.508,0.000,0
1644798904.513,-27.832,-666.992,-36.133,-24.414,0.000,0
1644798904.517,-23.926,-156.738,-34.668,-39.551,0.000,0
1644798904.520,-14.160,22.461,-34.668,-23.438,0.000,0
1644798904.524,-22.949,-257.324,-36.133,-14.160,0.000,0
1644798904.528,-35.156,-811.035,-32.227,-22.461,0.000,0
1644798904.532,-32.227,-906.250,-31.250,-33.691,0.000,0
1644798904.536,-25.879,-176.758,-32.715,-35.156,0.000,0
1644798904.539,-19.043,83.984,-30.762,-21.484,0.000,0
1644798904.543,-25.391,-97.168,-31.738,-0.488,0.000,0
1644798904.547,-38.086,-246.094,-34.668,0.488,0.000,0
1644798904.551,-45.410,-448.730,-31.250,-13.672,0.000,0
1644798904.555,-30.762,-361.816,-24.414,-22.461,0.000,0
1644798904.559,-15.137,-27.832,-24.902,-26.367,0.000,0
1644798904.563,-21.973,130.859,-26.367,-11.230,0.000,0
1644798904.566,-41.016,-478.516,-29.297,3.906,0.000,0
1644798904.570,-41.992,-1000.000,-34.180,-18.066,0.000,0
1644798904.574,-28.809,-700.684,-32.227,-30.762,0.000,0
1644798904.578,-27.832,127.930,-24.902,-23.926,0.000,0
1644798904.582,-26.367,134.277,-24.414,-23.926,0.000,0
1644798904.586,-34.180,-425.781,-29.785,-22.949,0.000,0
1644798904.589,-38.574,-796.387,-30.273,-19.043,0.000,0
1644798904.593,-27.344,-437.988,-27.832,-27.344,0.000,0
1644798904.597,-24.414,88.867,-29.785,-20.020,0.000,0
1644798904.601,-34.668,-18.555,-34.180,-11.719,0.000,0
1644798904.605,-44.922,-258.789,-30.762,-23.926,0.000,0
1644798904.609,-43.457,-541.016,-29.785,-32.715,0.000,0
1644798904.612,-32.715,-598.145,-35.645,-31.738,0.000,0
1644798904.616,-20.020,-730.469,-34.180,-29.785,0.000,0
1644798904.620,-24.414,-417.969,-35.156,-36.621,0.000,0
1644798904.624,-35.645,-16.602,-36.133,-27.344,0.000,0
1644798904.628,-37.598,-568.359,-29.785,-24.414,0.000,0
1644798904.632,-34.668,-637.207,-28.809,-46.387,0.000,0
1644798904.635,-26.367,40.527,-30.762,-28.320,0.000,0
1644798904.639,-25.879,350.586,-30.762,-16.602,0.000,0
1644798904.643,-35.156,-111.816,-34.180,-34.668,0.000,0
1644798904.647,-44.434,-803.223,-41.016,-48.340,0.000,0
1644798904.651,-53.223,-567.383,-40.039,-51.270,0.000,0
1644798904.655,-47.363,113.770,-33.203,-41.992,0.000,0
1644798904.658,-31.250,-279.297,-29.785,-22.949,0.000,0
1644798904.662,-40.527,-762.695,-31.738,-20.508,0.000,0
1644798904.666,-55.176,-479.492,-34.180,-38.086,0.000,0
1644798904.670,-40.527,-417.480,-33.691,-55.176,0.000,0
1644798904.674,-27.832,-289.062,-31.738,-53.711,0.000,0
1644798904.677,-36.133,68.848,-32.227,-35.156,0.000,0
1644798904.681,-44.434,164.551,-40.527,-34.180,0.000,0
1644798904.686,-48.340,-360.840,-46.875,-35.156,0.000,0
1644798904.690,-41.992,-692.383,-44.434,-35.645,0.000,0
1644798904.693,-36.621,-252.930,-38.086,-36.133,0.000,0
1644798904.697,-34.180,252.930,-34.668,-29.297,0.000,0
1644798904.701,-35.645,36.621,-39.062,-32.227,0.000,0
1644798904.705,-44.434,-751.953,-47.363,-29.297,0.000,0
1644798904.709,-41.504,-1000.000,-41.504,-33.691,0.000,0
1644798904.712,-36.621,-578.613,-33.691,-45.898,0.000,0
1644798904.716,-28.320,-274.902,-33.203,-26.855,0.000,0
1644798904.720,-28.320,-502.441,-33.691,-17.090,0.000,0
1644798904.724,-46.387,-545.410,-33.691,-32.227,0.000,0
1644798904.728,-49.805,-429.688,-33.691,-41.504,0.000,0
1644798904.732,-40.039,-423.828,-35.645,-39.062,0.000,0
1644798904.736,-29.785,-91.797,-37.109,-29.297,0.000,0
1644798904.740,-29.785,193.848,-37.109,-17.578,0.000,0
1644798904.744,-44.922,-118.164,-39.062,-8.789,0.000,0
1644798904.747,-44.434,-656.738,-39.551,-19.043,0.000,0
1644798904.751,-32.715,-735.352,-36.133,-41.992,0.000,0
1644798904.755,-26.855,-244.141,-33.691,-31.738,0.000,0
1644798904.759,-29.785,154.785,-30.273,-20.996,0.000,0
1644798904.763,-32.715,-438.965,-34.668,-3.418,0.000,0
1644798904.767,-40.527,-968.262,-37.109,-9.766,0.000,0
1644798904.770,-41.504,-379.395,-34.180,-42.480,0.000,0
1644798904.774,-29.297,86.914,-32.227,-40.039,0.000,0
1644798904.779,-30.762,2.930,-33.203,-34.180,0.000,0
1644798904.782,-38.086,-221.191,-36.621,-27.832,0.000,0
1644798904.786,-46.387,-435.059,-34.180,-25.391,0.000,0
1644798904.790,-47.852,-533.691,-28.320,-33.203,0.000,0
1644798904.794,-28.809,-271.973,-30.273,-24.414,0.000,0
1644798904.798,-20.020,-125.488,-36.621,-18.066,0.000,0
1644798904.802,-30.273,-403.809,-39.062,-11.719,0.000,0
1644798904.805,-39.551,-831.543,-38.574,-6.348,0.000,0
1644798904.809,-33.203,-971.191,-32.227,-12.207,0.000,0
1644798904.813,-32.227,-275.879,-31.250,-16.113,0.000,0
1644798904.817,-34.180,301.758,-36.133,-22.461,0.000,0
1644798904.821,-29.297,-125.000,-34.668,-15.137,0.000,0
1644798904.825,-34.180,-658.203,-36.621,-14.648,0.000,0
1644798904.829,-30.273,-458.008,-41.016,-51.758,0.000,0
1644798904.833,-28.809,3.906,-39.062,-50.293,0.000,1
1644798904.836,-32.227,-36.133,-40.527,-25.879,0.000,0
1644798904.840,-28.809,-228.516,-38.574,-19.043,0.000,0
1644798904.844,-36.133,-602.051,-36.621,-13.184,0.000,0
1644798904.848,-39.062,-791.992,-32.227,-35.156,0.000,0
1644798904.852,-24.902,-726.074,-26.367,-42.969,0.000,0
1644798904.856,-21.973,-634.766,-27.832,-29.297,0.000,0
1644798904.859,-37.598,1.953,-28.809,-23.926,0.000,0
1644798904.863,-50.781,-205.566,-27.344,-23.438,0.000,0
1644798904.867,-39.062,-693.848,-27.344,-41.504,0.000,0
1644798904.871,-20.996,-288.086,-29.297,-44.434,0.000,0
1644798904.875,-17.090,252.441,-29.297,-36.621,0.000,0
1644798904.879,-22.949,11.719,-26.855,-29.785,0.000,0
1644798904.883,-39.551,-539.551,-30.273,-27.832,0.000,0
1644798904.887,-44.434,-596.680,-36.133,-48.828,0.000,0
1644798904.890,-28.320,-374.512,-31.738,-45.898,0.000,0
1644798904.894,-18.555,-216.797,-27.832,-28.809,0.000,0
1644798904.898,-28.320,-560.547,-38.086,-28.320,0.000,0
1644798904.902,-44.434,-618.164,-43.457,-31.738,0.000,0
1644798904.906,-46.387,-412.598,-39.062,-38.574,0.000,0
1644798904.909,-24.902,-391.602,-38.574,-35.156,0.000,0
1644798904.913,-5.371,-155.762,-39.551,-23.926,0.000,0
1644798904.918,-19.531,140.137,-39.551,-25.879,0.000,0
1644798904.921,-32.715,-5.371,-40.527,-29.785,0.000,0
1644798904.925,-36.621,-629.395,-37.109,-34.180,0.000,0
1644798904.929,-39.551,-564.941,-34.668,-48.340,0.000,0
1644798904.933,-30.762,65.918,-30.273,-36.621,0.000,0
1644798904.937,-25.879,43.457,-28.320,-8.789,0.000,0
1644798904.940,-29.785,-569.824,-30.273,-3.906,0.000,0
1644798904.944,-37.598,-946.777,-30.762,-20.508,0.000,0
1644798904.948,-46.387,-391.602,-36.133,-48.340,0.000,0
1644798904.952,-28.320,44.922,-35.645,-44.922,0.000,0
1644798904.956,-20.996,-37.109,-33.203,-25.391,0.000,0
1644798904.960,-34.668,-139.160,-37.598,-23.926,0.000,0
1644798904.964,-38.574,-336.914,-40.039,-35.645,0.000,0
1644798904.968,-41.504,-411.621,-33.691,-36.621,0.000,0
1644798904.971,-30.762,-233.398,-27.832,-25.391,0.000,0
1644798904.975,-23.438,80.566,-31.738,-19.043,0.000,0
1644798904.979,-23.926,67.871,-37.109,-16.602,0.000,0
1644798904.983,-28.320,-581.543,-37.109,-16.602,0.000,0
1644798904.987,-23.926,-1000.000,-35.645,-14.160,0.000,0
1644798904.990,-18.555,-520.508,-30.273,-4.883,0.000,0
1644798904.994,-17.578,66.895,-26.367,-6.836,0.000,0
1644798904.998,-14.648,-242.188,-27.344,-3.906,0.000,0
1644798905.002,-27.344,-619.141,-31.738,4.883,0.000,0
1644798905.006,-38.574,-493.652,-37.109,-27.832,0.000,0
1644798905.010,-32.227,-53.711,-37.598,-49.316,0.000,0
1644798905.014,-25.879,32.227,-39.551,-33.203,0.000,0
1644798905.017,-35.156,-87.891,-36.621,-19.531,0.000,0
1644798905.021,-44.434,-249.023,-32.227,-23.926,0.000,0
1644798905.025,-50.293,-391.113,-30.273,-33.691,0.000,0
1644798905.029,-35.156,-683.594,-29.297,-22.461,0.000,0
1644798905.033,-24.414,-645.508,-31.738,-10.254,0.000,0
1644798905.037,-32.227,62.988,-32.715,-9.277,0.000,0
1644798905.040,-35.156,-168.945,-30.273,-12.207,0.000,0
1644798905.044,-30.762,-756.836,-29.785,-28.809,0.000,0
1644798905.048,-20.020,-468.750,-27.344,-34.668,0.000,0
1644798905.052,-3.906,29.785,-25.879,-16.113,0.000,0
1644798905.056,-9.766,-111.328,-29.297,-11.230,0.000,0
1644798905.060,-22.949,-470.703,-34.668,-19.043,0.000,0
1644798905.064,-29.297,-601.074,-35.156,-28.809,0.000,0
1644798905.068,-23.438,-240.234,-35.645,-27.344,0.000,0
1644798905.072,-12.207,43.457,-37.109,-13.184,0.000,0
1644798905.076,-25.879,-228.027,-41.016,-13.672,0.000,0
1644798905.079,-41.016,-649.902,-41.992,-17.090,0.000,0
1644798905.083,-41.504,-809.570,-35.645,-27.832,0.000,0
1644798905.087,-33.203,-605.957,-32.227,-37.109,0.000,0
1644798905.091,-19.043,-548.828,-28.320,-28.320,0.000,0
1644798905.095,-15.137,-122.559,-29.297,-16.602,0.000,0
1644798905.099,-31.738,51.758,-33.203,-10.742,0.000,0
1644798905.103,-37.109,-615.723,-31.250,-13.184,0.000,0
1644798905.107,-28.809,-640.625,-29.785,-26.855,0.000,0
1644798905.111,-21.973,-128.906,-35.645,-20.996,0.000,0
1644798905.115,-17.090,59.082,-32.715,-12.695,0.000,0
1644798905.118,-20.020,-228.516,-27.344,-20.020,0.000,0
1644798905.122,-36.621,-913.574,-31.738,-30.762,0.000,0
1644798905.126,-34.180,-784.180,-30.762,-38.574,0.000,0
1644798905.130,-16.113,19.531,-25.879,-32.227,0.000,0
1644798905.134,-13.672,-242.188,-23.926,-9.277,0.000,0
1644798905.137,-20.508,-790.039,-22.949,6.348,0.000,0
1644798905.141,-29.785,-455.566,-23.438,-11.230,0.000,0
1644798905.145,-32.715,-425.781,-26.855,-38.086,0.000,0
1644798905.150,-17.090,-297.852,-26.855,-38.574,0.000,0
1644798905.153,-8.301,98.145,-26.367,-20.996,0.000,0
1644798905.157,-22.949,179.688,-29.297,-25.391,0.000,0
1644798905.161,-32.715,-344.727,-31.738,-32.715,0.000,0
1644798905.165,-30.762,-737.305,-36.621,-38.574,0.000,0
1644798905.169,-21.973,-447.754,-39.062,-37.598,0.000,0
1644798905.173,-13.184,-121.094,-29.297,-26.855,0.000,0
1644798905.176,-11.230,-287.109,-26.855,-19.531,0.000,0
1644798905.180,-20.996,-826.660,-32.227,-13.184,0.000,0
1644798905.184,-47.363,-797.363,-27.344,-31.738,0.000,0
1644798905.188,-47.852,-171.387,-28.809,-48.828,0.000,0
1644798905.192,-33.203,54.688,-34.668,-36.621,0.000,0
1644798905.196,-29.297,-22.461,-32.227,-25.879,0.000,0
1644798905.200,-39.551,-151.855,-33.203,-32.227,0.000,0
1644798905.204,-56.152,-394.531,-33.691,-49.805,0.000,0
1644798905.208,-44.922,-402.832,-27.832,-48.340,0.000,0
1644798905.211,-31.250,-74.219,-27.832,-20.996,0.000,0
1644798905.215,-33.203,3.906,-35.645,-17.578,0.000,0
1644798905.219,-45.898,-456.055,-37.109,-32.227,0.000,0
1644798905.223,-49.316,-881.836,-32.715,-25.391,0.000,0
1644798905.227,-27.344,-844.238,-28.320,-16.602,0.000,0
1644798905.230,-23.926,-121.094,-27.832,-22.461,0.000,0
1644798905.234,-28.809,267.578,-34.180,-28.320,0.000,0
1644798905.238,-33.203,-196.289,-40.527,-13.672,0.000,0
1644798905.243,-45.898,-569.824,-37.109,-36.133,0.000,0
1644798905.246,-45.898,-237.793,-34.668,-67.383,0.000,0
1644798905.250,-38.574,155.273,-38.574,-52.734,0.000,0
1644798905.254,-36.133,107.422,-34.180,-42.480,0.000,0
1644798905.258,-41.504,-97.656,-31.250,-37.598,0.000,0
1644798905.262,-46.875,-606.934,-36.621,-44.434,0.000,0
1644798905.265,-30.762,-772.461,-35.156,-41.016,0.000,0
1644798905.269,-19.531,-736.328,-26.367,-30.762,0.000,0
1644798905.273,-26.855,-316.406,-26.855,-29.297,0.000,0
1644798905.277,-32.227,42.969,-35.645,-28.320,0.000,0
1644798905.281,-38.086,-549.805,-38.574,-36.133,0.000,0
1644798905.285,-36.133,-788.574,-37.109,-58.594,0.000,0
1644798905.289,-25.879,-230.957,-36.621,-41.016,0.000,0
1644798905.293,-27.344,253.906,-38.086,-15.137,0.000,0
1644798905.297,-35.645,-81.055,-43.945,-20.508,0.000,0
1644798905.300,-42.480,-631.348,-40.527,-22.949,0.000,0
1644798905.304,-38.086,-518.066,-31.738,-33.691,0.000,0
1644798905.308,-26.367,-171.875,-28.320,-41.992,0.000,0
1644798905.312,-23.926,-431.641,-33.203,-36.133,0.000,0
1644798905.316,-25.391,-712.402,-31.738,-24.414,0.000,0
1644798905.320,-39.062,-441.406,-27.832,-22.461,0.000,0
1644798905.323,-39.062,-464.355,-30.762,-32.715,0.000,0
1644798905.327,-18.555,-281.738,-28.809,-36.133,0.000,0
1644798905.331,-26.367,98.633,-27.344,-42.969,0.000,0
1644798905.335,-42.969,206.543,-30.762,-48.340,0.000,0
1644798905.339,-45.410,-252.930,-35.156,-44.434,0.000,0
1644798905.343,-39.062,-799.805,-36.133,-47.852,0.000,0
1644798905.347,-37.598,-493.164,-33.203,-42.480,0.000,0
1644798905.351,-34.180,163.086,-32.715,-26.855,0.000,0
1644798905.354,-29.785,13.184,-30.762,-23.926,0.000,0
1644798905.358,-37.109,-758.301,-33.691,-14.160,0.000,0
1644798905.362,-40.527,-953.613,-40.527,-17.090,0.000,0
1644798905.366,-29.297,-258.301,-36.621,-33.203,0.000,0
1644798905.370,-17.578,52.246,-34.180,-31.738,0.000,0
1644798905.373,-23.926,-40.527,-33.203,-33.203,0.000,0
1644798905.377,-40.039,-152.344,-32.715,-34.180,0.000,0
1644798905.382,-44.434,-405.762,-37.598,-37.598,0.000,0
1644798905.386,-37.109,-397.461,-37.598,-42.480,0.000,0
1644798905.390,-27.832,-81.055,-33.203,-33.203,0.000,0
1644798905.393,-24.414,248.535,-33.691,-30.762,0.000,0
1644798905.397,-39.551,-66.406,-40.039,-30.762,0.000,0
1644798905.401,-44.922,-787.109,-41.016,-28.320,0.000,0
1644798905.405,-36.133,-897.949,-31.738,-23.438,0.000,0
1644798905.409,-30.273,-231.445,-26.367,-18.066,0.000,0
1644798905.413,-26.855,233.887,-23.926,-19.043,0.000,0
1644798905.416,-37.109,-401.367,-31.250,-7.812,0.000,0
1644798905.420,-42.969,-876.953,-36.133,-12.207,0.000,0
1644798905.424,-35.645,-341.797,-33.691,-45.898,0.000,0
1644798905.429,-24.414,36.133,-38.086,-39.551,0.000,0
1644798905.433,-20.020,41.504,-34.180,-20.020,0.000,0
1644798905.436,-23.926,-83.008,-29.297,-12.207,0.000,0
1644798905.440,-35.156,-395.508,-35.156,-19.043,0.000,0
1644798905.444,-33.691,-480.469,-28.809,-27.344,0.000,0
1644798905.448,-18.066,-336.426,-24.902,-20.508,0.000,0
1644798905.452,-16.113,-229.004,-30.762,-14.648,0.000,0
1644798905.456,-23.926,-278.809,-32.227,-24.902,0.000,0
1644798905.459,-36.133,-671.875,-33.203,-27.832,0.000,0
1644798905.463,-39.551,-960.938,-35.645,-32.715,0.000,0
1644798905.467,-34.180,-353.516,-35.645,-40.039,0.000,0
1644798905.471,-34.180,309.082,-37.109,-50.781,0.000,0
1644798905.475,-40.039,-11.230,-43.457,-46.387,0.000,0
1644798905.479,-40.039,-580.566,-40.527,-40.039,0.000,0
1644798905.483,-33.203,-472.168,-32.227,-42.480,0.000,0
1644798905.487,-30.762,2.930,-33.691,-39.551,0.000,0
1644798905.491,-26.855,64.453,-36.133,-18.555,0.000,0
1644798905.495,-30.762,-363.281,-39.551,-21.484,0.000,0
1644798905.498,-39.062,-635.742,-43.457,-46.387,0.000,0
1644798905.502,-39.551,-422.363,-33.691,-48.828,0.000,0
1644798905.506,-32.227,-570.801,-24.902,-36.621,0.000,0
1644798905.510,-26.855,-753.906,-27.832,-14.648,0.000,0
1644798905.514,-37.598,-66.895,-32.227,-15.625,0.000,0
1644798905.518,-47.852,-201.172,-39.062,-6.348,0.000,0
1644798905.522,-44.922,-824.707,-41.504,-18.555,0.000,0
1644798905.526,-41.992,-466.309,-40.527,-42.480,0.000,0
1644798905.530,-34.180,196.289,-41.504,-25.879,0.000,0
1644798905.534,-20.996,146.973,-39.551,-9.766,0.000,0
1644798905.537,-26.855,-466.797,-42.969,-20.020,0.000,0
1644798905.541,-49.805,-905.273,-46.875,-46.387,0.000,0
1644798905.545,-41.504,-672.852,-40.039,-56.152,0.000,0
1644798905.549,-25.391,-258.789,-31.738,-36.621,0.000,0
1644798905.553,-35.645,-537.109,-31.738,-20.508,0.000,0
1644798905.556,-44.922,-641.113,-39.551,-35.645,0.000,0
1644798905.560,-47.852,-418.457,-40.039,-40.527,0.000,0
1644798905.564,-41.504,-443.848,-35.156,-40.527,0.000,0
1644798905.569,-30.273,-121.582,-33.203,-44.434,0.000,0
1644798905.572,-27.344,246.094,-29.297,-35.156,0.000,0
1644798905.576,-31.250,-59.570,-32.715,-19.043,0.000,0
1644798905.580,-30.762,-703.125,-34.180,-35.645,0.000,0
1644798905.584,-37.598,-623.047,-35.645,-60.547,0.000,0
1644798905.588,-34.180,-154.297,-40.039,-39.062,0.000,0
1644798905.592,-27.832,-17.090,-36.133,-20.020,0.000,0
1644798905.595,-33.691,-486.816,-29.297,-14.648,0.000,0
1644798905.599,-38.086,-928.223,-30.273,-10.254,0.000,0
1644798905.603,-28.320,-427.246,-26.855,-22.949,0.000,0
1644798905.607,-18.555,78.125,-20.996,-22.461,0.000,0
1644798905.611,-20.508,111.816,-26.855,-13.184,0.000,0
1644798905.615,-22.461,-63.477,-34.180,-13.672,0.000,0
1644798905.619,-35.156,-295.410,-34.668,-27.832,0.000,0
1644798905.623,-41.992,-415.039,-29.785,-28.809,0.000,0
1644798905.627,-29.297,-256.836,-28.809,-30.762,0.000,0
1644798905.630,-18.555,-5.371,-27.832,-26.855,0.000,0
1644798905.634,-17.578,-191.406,-28.320,-12.695,0.000,0
1644798905.638,-28.320,-694.824,-36.133,-15.625,0.000,0
1644798905.642,-43.945,-994.141,-40.527,-22.461,0.000,0
1644798905.646,-42.480,-502.930,-32.715,-16.113,0.000,0
1644798905.650,-29.297,247.559,-25.879,-17.090,0.000,0
1644798905.653,-27.832,28.809,-24.902,-18.555,0.000,0
1644798905.657,-37.109,-494.141,-26.367,-18.555,0.000,0
1644798905.662,-37.109,-446.777,-30.762,-34.668,0.000,2
1644798905.665,-19.043,-31.250,-31.250,-24.902,0.000,0
1644798905.669,-10.742,35.156,-33.691,-13.672,0.000,0
1644798905.673,-19.531,-93.750,-36.133,-9.766,0.000,0
1644798905.677,-29.297,-246.582,-34.668,-5.859,0.000,0
1644798905.681,-31.250,-663.574,-29.297,-26.367,0.000,0
1644798905.685,-25.391,-925.781,-27.344,-32.227,0.000,0
1644798905.688,-16.602,-629.395,-32.715,-24.902,0.000,0
1644798905.692,-26.855,53.223,-35.645,-35.156,0.000,0
1644798905.696,-43.945,-358.887,-35.645,-26.367,0.000,0
1644798905.700,-42.480,-860.352,-33.691,-27.344,0.000,0
1644798905.704,-41.016,-412.109,-35.156,-26.367,0.000,0
1644798905.708,-36.133,226.562,-36.133,-23.438,0.000,0
1644798905.712,-26.855,229.004,-32.227,-28.809,0.000,0
1644798905.716,-34.668,-281.250,-32.227,-17.578,0.000,0
1644798905.719,-44.922,-534.668,-34.668,-31.738,0.000,0
1644798905.723,-38.574,-273.926,-30.762,-40.039,0.000,0
1644798905.727,-20.020,-110.840,-29.785,-20.996,0.000,0
1644798905.731,-2.930,-610.840,-30.762,-2.441,0.000,0
1644798905.735,-21.484,-759.766,-30.762,2.441,0.000,0
1644798905.739,-45.410,-505.859,-30.762,-15.137,0.000,0
1644798905.742,-32.715,-497.070,-29.785,-29.297,0.000,0
1644798905.746,-25.879,-200.684,-30.762,-31.738,0.000,0
1644798905.750,-30.762,88.867,-25.879,-35.156,0.000,0
1644798905.754,-41.992,-134.766,-32.227,-31.250,0.000,0
1644798905.758,-49.316,-665.039,-41.992,-22.949,0.000,0
1644798905.762,-41.016,-690.918,-34.180,-33.203,0.000,0
1644798905.766,-41.016,41.504,-31.250,-35.156,0.000,0
1644798905.770,-34.668,281.738,-37.109,-29.785,0.000,0
1644798905.773,-38.574,-428.711,-41.504,-24.414,0.000,0
1644798905.777,-49.316,-968.262,-42.969,-32.715,0.000,0
1644798905.781,-39.551,-520.020,-41.016,-33.203,0.000,0
1644798905.785,-25.879,76.660,-36.621,-22.949,0.000,0
1644798905.789,-15.137,-151.367,-33.691,-20.996,0.000,0
1644798905.793,-15.137,-382.324,-30.762,-13.184,0.000,0
1644798905.796,-31.250,-324.707,-24.414,-24.902,0.000,0
1644798905.801,-37.109,-479.492,-27.832,-39.062,0.000,0
1644798905.805,-24.414,-253.906,-31.250,-36.621,0.000,0
1644798905.809,-17.090,92.285,-27.344,-25.391,0.000,0
1644798905.813,-22.949,-8.301,-27.832,-12.207,0.000,0
1644798905.816,-38.574,-456.055,-32.715,-11.719,0.000,0
1644798905.820,-38.574,-846.191,-33.203,-23.926,0.000,0
1644798905.824,-27.344,-657.227,-26.367,-34.668,0.000,0
1644798905.828,-27.832,-148.438,-26.367,-30.273,0.000,0
1644798905.832,-29.785,-58.105,-30.273,-16.602,0.000,0
1644798905.836,-40.527,-709.473,-40.039,-9.277,0.000,0
1644798905.839,-46.875,-803.223,-43.457,-30.273,0.000,0
1644798905.843,-36.133,-86.914,-36.621,-52.246,0.000,0
1644798905.848,-20.996,-23.926,-36.133,-40.527,0.000,0
1644798905.852,-14.160,-299.805,-34.668,-18.555,0.000,0
1644798905.856,-28.809,-242.188,-30.762,-12.207,0.000,0
1644798905.859,-38.086,-382.324,-35.645,-32.715,0.000,0
1644798905.863,-33.691,-423.828,-33.691,-48.828,0.000,0
1644798905.867,-20.996,-300.293,-31.738,-31.250,0.000,0
1644798905.871,-16.602,-166.016,-38.574,-17.578,0.000,0
1644798905.875,-30.762,-426.758,-37.109,-25.879,0.000,0
1644798905.879,-40.039,-901.367,-38.574,-39.551,0.000,0
1644798905.882,-23.438,-746.582,-39.551,-46.387,0.000,0
1644798905.886,-15.137,49.316,-35.645,-27.832,0.000,0
1644798905.890,-24.902,254.395,-31.250,-12.695,0.000,0
1644798905.895,-34.668,-218.262,-28.320,-16.113,0.000,0
1644798905.898,-44.922,-580.566,-32.227,-34.668,0.000,0
1644798905.902,-38.574,-327.637,-33.203,-50.293,0.000,0
1644798905.906,-25.391,1.465,-30.273,-35.156,0.000,0
1644798905.910,-26.367,-18.555,-24.414,-19.043,0.000,0
1644798905.914,-41.016,-310.547,-32.715,-22.461,0.000,0
1644798905.918,-48.828,-797.852,-35.645,-19.043,0.000,0
1644798905.921,-38.086,-775.879,-31.250,-24.414,0.000,0
1644798905.925,-31.250,-735.352,-29.785,-27.344,0.000,0
1644798905.929,-32.715,-449.219,-29.297,-16.602,0.000,0
1644798905.933,-31.738,34.668,-30.762,-5.859,0.000,0
1644798905.937,-29.785,-481.934,-33.691,-11.230,0.000,0
1644798905.941,-25.879,-676.270,-34.180,-33.691,0.000,0
1644798905.945,-17.578,-19.043,-35.645,-31.738,0.000,0
1644798905.949,-4.395,330.566,-39.062,-31.250,0.000,0
1644798905.953,-8.789,-5.859,-38.574,-27.832,0.000,0
1644798905.957,-20.508,-551.758,-36.621,-16.602,0.000,0
1644798905.960,-18.555,-704.590,-33.691,-20.020,0.000,0
1644798905.964,-12.695,-369.141,-31.738,-20.508,0.000,0
1644798905.968,-11.230,-381.348,-33.203,-12.695,0.000,0
1644798905.972,-17.578,-670.410,-34.668,-16.113,0.000,0
1644798905.976,-23.926,-450.195,-38.086,-31.250,0.000,0
1644798905.980,-16.113,-453.613,-33.691,-35.645,0.000,0
1644798905.983,-18.066,-352.051,-31.250,-28.809,0.000,0
1644798905.988,-17.578,-98.145,-31.250,-5.859,0.000,0
1644798905.992,-18.066,184.570,-21.973,6.836,0.000,0
1644798905.996,-33.691,-144.043,-23.926,-8.789,0.000,0
1644798906.000,-39.062,-629.395,-28.809,-35.645,0.000,0
1644798906.004,-30.273,-242.676,-23.926,-37.598,0.000,0
1644798906.007,-22.461,62.988,-20.508,-19.531,0.000,0
1644798906.011,-21.484,-169.922,-20.020,-5.859,0.000,0
1644798906.015,-23.438,-742.188,-18.066,10.742,0.000,0
1644798906.019,-29.297,-769.043,-13.672,0.977,0.000,0
1644798906.023,-19.531,-137.207,-15.625,-31.250,0.000,0
1644798906.027,-10.254,69.824,-24.902,-24.902,0.000,0
1644798906.030,-16.113,-1.465,-22.461,-14.160,0.000,0
1644798906.035,-24.902,-78.613,-16.113,-19.531,0.000,0
1644798906.039,-23.926,-312.988,-24.902,-21.973,0.000,0
1644798906.042,-18.555,-453.613,-31.738,-44.922,0.000,0
1644798906.046,-23.926,-339.844,-27.832,-37.109,0.000,0
1644798906.050,-31.738,27.832,-21.973,-5.371,0.000,0
1644798906.054,-38.086,-288.086,-21.484,-0.977,0.000,0
1644798906.058,-39.551,-901.855,-24.414,-14.648,0.000,0
1644798906.062,-35.645,-630.859,-26.855,-24.414,0.000,0
1644798906.065,-34.180,107.422,-24.414,-11.230,0.000,0
1644798906.069,-27.832,394.531,-25.391,-8.301,0.000,0
1644798906.073,-29.785,-354.492,-37.598,-17.090,0.000,0
1644798906.077,-46.875,-965.332,-42.969,-25.879,0.000,0
1644798906.081,-46.875,-430.664,-36.621,-37.598,0.000,0
1644798906.085,-22.461,39.062,-35.645,-19.531,0.000,0
1644798906.089,-17.090,105.469,-32.715,-5.371,0.000,0
1644798906.093,-24.414,79.590,-35.645,-8.789,0.000,0
1644798906.097,-25.879,-226.562,-40.527,-18.066,0.000,0
1644798906.100,-18.555,-510.742,-31.250,-22.461,0.000,0
1644798906.104,-15.137,-674.316,-27.832,-7.812,0.000,0
1644798906.108,-12.695,-453.125,-30.762,0.000,0.000,0
1644798906.112,-16.602,39.062,-29.785,-1.953,0.000,0
1644798906.116,-26.855,-305.176,-33.691,-7.324,0.000,0
1644798906.120,-20.996,-538.086,-34.668,-20.020,0.000,0
1644798906.123,-15.137,141.602,-33.203,-19.531,0.000,0
1644798906.128,-9.766,676.758,-35.156,-17.090,0.000,0
1644798906.131,-20.020,332.520,-44.922,-12.695,0.000,0
1644798906.135,-40.527,-253.418,-52.734,-6.348,0.000,0
1644798906.139,-35.156,-255.371,-53.223,-31.738,0.000,0
1644798906.143,-23.438,154.297,-54.199,-64.941,0.000,0
1644798906.147,-23.438,-79.102,-57.617,-49.316,0.000,0
1644798906.151,-31.738,-446.289,-63.965,-28.809,0.000,0
1644798906.154,-42.969,-193.848,-56.641,-22.461,0.000,0
1644798906.158,-43.457,-344.238,-55.176,-44.922,0.000,0
1644798906.162,-25.879,-379.883,-56.641,-53.223,0.000,0
1644798906.166,-15.625,69.336,-54.199,-36.621,0.000,0
1644798906.170,-21.484,400.391,-58.105,-37.598,0.000,0
1644798906.174,-40.527,-36.621,-59.570,-31.738,0.000,0
1644798906.178,-46.875,-609.863,-61.523,-39.551,0.000,0
1644798906.182,-40.527,-361.816,-61.523,-54.688,0.000,0
1644798906.186,-39.062,257.812,-56.641,-47.852,0.000,0
1644798906.190,-36.133,245.605,-54.688,-34.180,0.000,0
1644798906.194,-43.457,-501.465,-59.082,-29.297,0.000,0
1644798906.197,-60.547,-1000.000,-61.523,-39.062,0.000,0
1644798906.201,-48.340,-670.898,-53.223,-44.922,0.000,0
1644798906.205,-26.855,-185.547,-49.805,-23.438,0.000,0
1644798906.209,-22.461,-407.227,-47.852,-5.371,0.000,0
1644798906.213,-27.832,-435.547,-45.898,-10.254,0.000,0
1644798906.217,-32.227,-426.270,-49.316,-21.973,0.000,0
1644798906.221,-23.438,-723.633,-52.734,-17.090,0.000,0
1644798906.225,-10.254,-402.344,-48.340,2.441,0.000,0
1644798906.229,-13.184,96.191,-43.457,-0.488,0.000,0
1644798906.233,-17.578,-21.484,-42.480,7.812,0.000,0
1644798906.237,-17.090,-612.305,-35.645,18.066,0.000,0
1644798906.240,-17.578,-934.082,-35.156,12.207,0.000,0
1644798906.244,-9.277,-481.934,-35.156,8.301,0.000,0
1644798906.248,-5.859,20.020,-35.645,0.000,0.000,0
1644798906.252,-6.348,-439.453,-37.598,7.324,0.000,0
1644798906.256,-6.348,-1000.000,-37.109,-6.836,0.000,0
1644798906.260,-12.695,-716.309,-37.109,-36.133,0.000,0
1644798906.263,-7.324,-235.840,-33.691,-25.879,0.000,0
1644798906.268,6.348,-188.965,-27.344,5.859,0.000,0
1644798906.272,6.348,-240.234,-23.926,19.531,0.000,0
1644798906.276,-1.953,-454.102,-25.879,6.836,0.000,0
1644798906.280,1.465,-835.449,-21.484,-0.488,0.000,0
1644798906.283,10.742,-732.422,-23.926,-6.836,0.000,0
1644798906.287,9.277,-452.637,-29.785,3.418,0.000,0
1644798906.291,4.395,-534.180,-24.902,24.414,0.000,0
1644798906.295,-4.883,-838.379,-25.879,15.625,0.000,0
1644798906.299,-2.441,-1000.000,-28.809,-10.254,0.000,0
1644798906.303,6.836,-648.926,-20.996,-20.020,0.000,0
1644798906.306,4.395,-83.496,-17.578,-12.207,0.000,0
1644798906.310,0.977,-244.141,-19.531,11.719,0.000,0
1644798906.315,-3.906,-713.867,-22.461,22.461,0.000,0
1644798906.318,-15.137,-727.539,-23.438,-6.348,0.000,0
1644798906.322,-4.395,-428.711,-27.832,-11.719,0.000,0
1644798906.326,7.324,-327.637,-28.809,13.184,0.000,0
1644798906.330,-3.418,-308.594,-25.879,13.672,0.000,0
1644798906.334,-5.371,-559.570,-24.902,14.648,0.000,0
1644798906.338,-5.859,-948.730,-21.484,4.395,0.000,0
1644798906.342,-5.371,-1000.000,-20.020,-4.883,0.000,0
1644798906.345,-0.488,-763.672,-15.137,12.207,0.000,0
1644798906.349,0.977,-173.828,-14.648,16.113,0.000,0
1644798906.353,-1.465,-258.301,-23.926,-3.906,0.000,0
1644798906.357,-17.578,-761.719,-28.320,-13.184,0.000,0
1644798906.361,-13.184,-679.199,-19.531,2.930,0.000,0
1644798906.365,-3.906,-161.621,-17.090,2.930,0.000,0
1644798906.369,-7.324,-56.152,-20.020,6.348,0.000,0
1644798906.373,-6.348,-415.527,-19.043,20.508,0.000,0
1644798906.377,-11.719,-631.348,-28.809,-1.465,0.000,0
1644798906.380,-11.230,-690.430,-28.809,-28.809,0.000,0
1644798906.384,-7.324,-631.348,-22.461,-21.973,0.000,0
1644798906.388,-7.324,-651.367,-26.367,-6.348,0.000,0
1644798906.392,-16.602,-497.559,-28.809,-6.348,0.000,0
1644798906.396,-23.926,-607.422,-25.879,-11.230,0.000,0
1644798906.400,-14.160,-938.477,-28.809,-18.066,0.000,0
1644798906.404,-5.859,-782.227,-28.320,-6.836,0.000,0
1644798906.408,-11.230,-252.441,-23.438,-11.719,0.000,0
1644798906.412,-15.625,-46.875,-25.391,-15.137,0.000,0
1644798906.416,-20.996,-579.590,-32.715,-12.207,0.000,0
1644798906.419,-22.461,-741.699,-39.551,-25.391,0.000,0
1644798906.423,-8.301,-254.883,-34.180,-25.879,0.000,0
1644798906.427,-1.953,-191.406,-25.879,-0.488,0.000,0
1644798906.431,-8.301,-636.230,-27.344,21.484,0.000,2
1644798906.435,-23.926,-928.711,-31.738,7.812,0.000,0
1644798906.439,-21.973,-594.238,-28.809,-16.602,0.000,0
1644798906.442,-4.395,-257.324,-24.902,-10.254,0.000,0
1644798906.446,-6.348,-187.988,-27.344,-4.883,0.000,0
1644798906.450,-5.859,-113.770,-23.438,0.000,0.000,0
1644798906.454,-10.254,-389.648,-20.996,-1.953,0.000,0
1644798906.458,-20.020,-680.664,-28.809,-36.133,0.000,0
1644798906.462,-9.766,-495.117,-24.414,-20.508,0.000,0
1644798906.466,-7.324,-148.926,-22.461,-9.766,0.000,0
1644798906.470,-5.371,-23.438,-23.438,-14.160,0.000,0
1644798906.474,-10.254,-439.941,-24.902,-5.859,0.000,0
1644798906.477,-18.066,-921.387,-31.738,-27.832,0.000,0
1644798906.481,-19.531,-780.762,-29.297,-37.109,0.000,0
1644798906.485,-22.461,-48.340,-26.367,-17.578,0.000,0
1644798906.489,-19.531,61.035,-31.738,0.977,0.000,0
1644798906.493,-23.926,-301.758,-38.086,-19.531,0.000,0
1644798906.497,-38.574,-297.363,-41.016,-47.852,0.000,0
1644798906.501,-45.410,-36.621,-40.039,-45.898,0.000,0
1644798906.505,-27.344,55.664,-34.180,-34.180,0.000,0
1644798906.509,-27.832,20.020,-29.785,-26.855,0.000,0
1644798906.512,-39.062,-93.262,-30.762,-20.508,0.000,0
1644798906.516,-41.504,-246.582,-31.250,-32.227,0.000,0
1644798906.520,-33.203,-585.449,-30.762,-39.551,0.000,0
1644798906.524,-22.949,-600.098,-32.715,-32.227,0.000,0
1644798906.528,-32.227,201.660,-30.762,-30.273,0.000,0
1644798906.532,-43.945,217.773,-29.785,-20.020,0.000,0
1644798906.535,-50.781,-347.656,-28.320,-30.762,0.000,0
1644798906.539,-46.875,-325.195,-24.902,-51.758,0.000,0
1644798906.543,-30.273,278.809,-26.855,-34.668,0.000,0
1644798906.548,-31.250,371.582,-31.250,-16.602,0.000,0
1644798906.552,-48.340,43.457,-33.203,-19.531,0.000,0
1644798906.555,-65.918,-129.883,-36.133,-27.344,0.000,0
1644798906.559,-62.012,-19.043,-34.180,-27.344,0.000,0
1644798906.563,-44.922,172.852,-30.273,-16.113,0.000,0
1644798906.567,-31.738,-26.367,-34.668,-16.113,0.000,0
1644798906.571,-38.574,-222.168,-40.039,-22.949,0.000,0
1644798906.575,-54.688,-372.559,-36.621,-18.555,0.000,0
1644798906.579,-46.387,-551.270,-31.738,-23.926,0.000,0
1644798906.582,-30.762,-485.352,-35.156,-37.109,0.000,0
1644798906.586,-29.297,21.484,-36.621,-30.273,0.000,0
1644798906.590,-31.738,389.160,-31.250,-20.996,0.000,0
1644798906.595,-37.598,-77.637,-32.715,-26.855,0.000,0
1644798906.598,-45.898,-373.047,-35.156,-32.227,0.000,0
1644798906.602,-42.969,112.305,-36.621,-41.504,0.000,0
1644798906.606,-32.227,440.918,-38.574,-34.180,0.000,0
1644798906.610,-26.367,154.785,-36.133,-36.133,0.000,0
1644798906.614,-39.551,-425.781,-35.156,-43.945,0.000,0
1644798906.618,-47.852,-491.211,-36.133,-46.387,0.000,0
1644798906.621,-40.527,87.402,-31.738,-51.758,0.000,0
1644798906.625,-34.668,-116.211,-29.297,-38.086,0.000,0
1644798906.629,-36.621,-707.031,-34.668,-24.414,0.000,0
1644798906.633,-50.781,-271.973,-39.062,-27.344,0.000,0
1644798906.637,-52.734,-156.250,-43.457,-41.992,0.000,0
1644798906.641,-51.270,-215.332,-41.992,-58.594,0.000,0
1644798906.645,-37.109,153.320,-35.156,-50.293,0.000,0
1644798906.649,-35.645,370.117,-33.203,-34.668,0.000,0
1644798906.653,-54.199,85.938,-31.738,-32.715,0.000,0
1644798906.657,-56.641,-412.109,-30.273,-44.434,0.000,0
1644798906.661,-50.293,-455.566,-31.250,-56.641,0.000,0
1644798906.664,-29.297,-166.016,-36.133,-48.828,0.000,0
1644798906.668,-26.855,-95.703,-37.598,-35.645,0.000,0
1644798906.672,-50.781,-583.496,-37.598,-31.250,0.000,0
1644798906.676,-53.711,-771.484,-37.598,-54.688,0.000,0
1644798906.680,-44.434,-210.449,-34.180,-69.824,0.000,0
1644798906.684,-42.480,19.531,-37.598,-47.852,0.000,0
1644798906.688,-38.574,-131.348,-35.645,-27.832,0.000,0
1644798906.692,-38.574,-64.941,-32.227,-18.066,0.000,0
1644798906.696,-50.781,-88.379,-35.156,-25.879,0.000,0
1644798906.700,-48.828,-305.176,-27.344,-39.551,0.000,0
1644798906.703,-30.762,-122.070,-25.879,-34.668,0.000,0
1644798906.707,-21.973,54.688,-28.320,-20.508,0.000,0
1644798906.711,-35.645,-192.383,-28.320,-24.414,0.000,0
1644798906.715,-48.828,-724.121,-35.156,-32.227,0.000,0
1644798906.719,-44.434,-800.293,-39.062,-38.574,0.000,0
1644798906.723,-37.109,-48.828,-34.668,-34.180,0.000,0
1644798906.727,-33.691,283.203,-35.156,-42.480,0.000,0
1644798906.730,-33.203,-22.949,-39.062,-49.316,0.000,0
1644798906.735,-46.387,-332.520,-39.062,-43.457,0.000,0
1644798906.739,-56.152,-221.191,-38.574,-47.852,0.000,0
1644798906.742,-37.598,-4.883,-33.203,-42.969,0.000,0
1644798906.746,-23.926,-122.559,-30.762,-31.738,0.000,0
1644798906.750,-33.691,-154.297,-35.156,-24.902,0.000,0
1644798906.754,-42.480,-438.477,-33.691,-26.367,0.000,0
1644798906.758,-39.062,-745.117,-28.320,-22.461,0.000,0
1644798906.762,-29.297,-803.223,-23.438,-3.906,0.000,0
1644798906.766,-24.902,-308.594,-22.461,-12.207,0.000,0
1644798906.769,-35.156,250.977,-28.809,-25.879,0.000,0
1644798906.773,-44.434,-231.934,-35.645,-25.879,0.000,0
1644798906.777,-43.457,-538.086,-35.645,-46.875,0.000,0
1644798906.781,-31.250,-98.145,-27.832,-51.758,0.000,0
1644798906.785,-24.902,261.230,-27.344,-33.203,0.000,0
1644798906.789,-30.762,28.320,-34.180,-25.879,0.000,0
1644798906.793,-31.250,-348.633,-31.250,-22.949,0.000,0
1644798906.797,-43.457,-360.840,-30.762,-28.320,0.000,0
1644798906.801,-40.527,-314.941,-33.691,-34.668,0.000,0
1644798906.804,-11.230,-531.250,-32.227,-8.301,0.000,0
1644798906.808,-20.996,-673.828,-31.250,7.324,0.000,0
1644798906.812,-50.293,-261.230,-29.297,-0.488,0.000,0
1644798906.816,-59.570,-322.266,-32.227,-31.738,0.000,0
1644798906.820,-43.945,-423.340,-37.109,-56.641,0.000,0
1644798906.824,-16.602,-20.996,-33.203,-38.574,0.000,0
1644798906.828,-15.625,337.891,-28.809,-20.996,0.000,0
1644798906.832,-26.367,35.645,-30.273,-33.691,0.000,0
1644798906.836,-28.320,-477.539,-30.273,-46.875,0.000,0
1644798906.840,-24.902,-326.660,-27.832,-50.781,0.000,0
1644798906.843,-18.066,120.605,-25.879,-38.574,0.000,0
1644798906.847,-16.602,89.355,-23.438,-7.812,0.000,0
1644798906.851,-27.344,-635.742,-27.344,-3.418,0.000,0
1644798906.855,-44.434,-981.445,-26.367,-18.555,0.000,0
1644798906.859,-36.133,-368.652,-22.461,-23.438,0.000,0
1644798906.863,-27.344,-23.926,-21.973,-4.883,0.000,0
1644798906.866,-23.438,24.902,-21.973,2.930,0.000,0
1644798906.870,-20.996,86.426,-30.273,-3.906,0.000,0
1644798906.875,-30.762,-131.836,-30.762,-11.230,0.000,0
1644798906.878,-17.090,-384.766,-27.344,-11.719,0.000,0
1644798906.882,-2.441,-109.375,-28.809,-2.930,0.000,0
1644798906.886,-6.836,309.570,-28.320,2.441,0.000,0
1644798906.890,-13.184,198.730,-24.902,-3.418,0.000,0
1644798906.894,-19.531,-503.418,-28.320,-14.648,0.000,0
1644798906.898,-19.043,-808.594,-35.156,-28.320,0.000,0
1644798906.901,-8.301,-0.977,-31.738,-32.227,0.000,0
1644798906.905,-14.648,522.461,-33.691,-20.508,0.000,0
1644798906.909,-20.020,-32.227,-37.598,-8.301,0.000,0
1644798906.913,-24.414,-515.137,-36.621,-26.367,0.000,0
1644798906.917,-29.297,-178.711,-33.691,-53.711,0.000,0
1644798906.921,-14.648,-48.828,-32.715,-48.340,0.000,0
1644798906.925,-7.324,28.320,-31.738,-35.645,0.000,0
1644798906.929,-11.719,110.840,-32.227,-13.184,0.000,0
1644798906.933,-27.344,-102.051,-41.016,-19.043,0.000,0
1644798906.937,-31.250,-381.836,-44.922,-43.457,0.000,0
1644798906.941,-17.090,-497.559,-45.410,-44.922,0.000,0
1644798906.944,-12.207,-295.410,-44.434,-33.203,0.000,0
1644798906.948,-28.320,-123.535,-39.062,-30.273,0.000,0
1644798906.952,-47.363,-376.953,-41.992,-20.996,0.000,0
1644798906.956,-41.016,-837.402,-51.758,-19.531,0.000,0
1644798906.960,-27.344,-439.941,-44.434,-35.156,0.000,0
1644798906.964,-14.160,248.535,-35.645,-10.254,0.000,0
1644798906.968,-14.160,52.246,-38.086,1.465,0.000,0
1644798906.972,-34.180,-377.441,-41.992,-17.578,0.000,0
1644798906.976,-42.480,-369.629,-46.387,-34.180,0.000,0
1644798906.980,-35.156,-290.039,-47.852,-42.969,0.000,0
1644798906.984,-22.461,-297.363,-47.363,-34.180,0.000,0
1644798906.987,-21.973,-395.508,-44.434,-15.137,0.000,0
1644798906.991,-28.809,-458.496,-39.551,-20.508,0.000,0
1644798906.995,-34.180,-479.492,-38.086,-25.879,0.000,0
1644798906.999,-23.926,-835.449,-40.039,-14.160,0.000,0
1644798907.003,-14.160,-755.371,-35.645,0.488,0.000,0
1644798907.007,-15.625,-78.125,-27.344,2.930,0.000,0
1644798907.011,-20.020,-163.574,-29.297,3.906,0.000,0
1644798907.015,-33.691,-701.660,-33.203,-0.488,0.000,0
1644798907.019,-31.250,-665.039,-31.738,-14.648,0.000,0
1644798907.023,-13.672,-158.691,-28.809,-11.719,0.000,0
1644798907.027,-9.766,-47.852,-30.762,-5.859,0.000,0
1644798907.030,-22.461,-425.781,-32.715,-4.883,0.000,0
1644798907.034,-30.273,-869.629,-37.598,-8.301,0.000,0
1644798907.038,-20.996,-939.941,-35.645,-3.418,0.000,0
1644798907.042,-5.371,-672.363,-24.414,13.672,0.000,0
1644798907.046,-7.324,-764.160,-25.879,9.277,0.000,0
1644798907.050,-13.672,-590.820,-23.926,-3.418,0.000,0
1644798907.054,-21.484,-376.465,-21.484,-11.719,0.000,0
1644798907.057,-33.691,-705.566,-26.367,-24.902,0.000,0
1644798907.062,-18.555,-549.316,-25.391,-20.996,0.000,0
1644798907.066,-7.812,-75.684,-30.762,-9.766,0.000,0
1644798907.070,-17.578,-56.152,-33.691,-0.977,0.000,0
1644798907.073,-21.484,-548.828,-32.227,-2.441,0.000,0
1644798907.077,-20.996,-804.199,-35.645,-5.371,0.000,0
1644798907.081,-10.254,-549.316,-32.715,-1.953,0.000,0
1644798907.085,-6.836,-330.566,-36.133,-5.371,0.000,0
1644798907.089,-14.648,-591.309,-36.621,-0.488,0.000,0
1644798907.093,-20.508,-885.254,-34.668,-9.277,0.000,0
1644798907.096,-18.555,-615.234,-34.668,-24.902,0.000,0
1644798907.100,-4.883,-455.566,-30.273,-11.230,0.000,0
1644798907.104,-1.953,-258.789,-32.227,-0.488,0.000,0
1644798907.109,-6.836,19.043,-28.809,-2.441,0.000,0
1644798907.113,-10.254,37.109,-27.344,3.418,0.000,0
1644798907.117,-24.902,-270.996,-37.109,-0.488,0.000,0
1644798907.120,-24.414,-240.234,-32.227,-12.695,0.000,0
1644798907.124,-8.301,146.484,-27.344,-28.809,0.000,0
1644798907.128,-6.348,147.949,-27.344,-30.762,0.000,0
1644798907.132,-18.066,-136.230,-25.391,-20.996,0.000,0
1644798907.136,-33.203,-684.570,-29.297,-25.879,0.000,0
1644798907.140,-34.180,-317.871,-31.250,-37.598,0.000,0
1644798907.143,-23.926,665.527,-26.855,-23.926,0.000,0
1644798907.147,-23.438,651.855,-26.367,-8.301,0.000,0
1644798907.151,-18.555,381.836,-23.926,-13.184,0.000,0
1644798907.156,-17.578,288.574,-24.414,-29.297,0.000,0
1644798907.159,-23.438,415.527,-24.902,-30.273,0.000,0
1644798907.163,-10.742,668.457,-22.949,-8.301,0.000,0
1644798907.167,-6.348,804.688,-23.438,3.418,0.000,1
1644798907.171,-26.367,896.484,-22.949,-1.953,0.000,0
1644798907.175,-33.203,443.359,-23.926,-18.066,0.000,0
1644798907.179,-24.414,280.762,-25.879,-24.902,0.000,0
1644798907.182,-13.184,735.840,-27.832,-28.320,0.000,0
1644798907.186,-12.207,959.961,-27.344,-32.715,0.000,0
1644798907.190,-15.137,-941.406,-29.297,-16.602,0.000,0
1644798907.194,-28.320,351.074,-31.738,-14.648,0.000,0
1644798907.198,-38.574,42.480,-30.273,-23.926,0.000,0
1644798907.202,-35.156,944.824,-23.438,-23.926,0.000,0
1644798907.206,-22.949,987.793,-24.414,-22.461,0.000,0
1644798907.210,-31.250,918.945,-29.297,-23.926,0.000,0
1644798907.214,-49.316,836.426,-32.715,-36.621,0.000,0
1644798907.218,-47.363,758.789,-32.715,-39.551,0.000,0
1644798907.221,-39.062,966.309,-26.367,-30.273,0.000,0
1644798907.225,-41.016,635.254,-29.297,-33.691,0.000,0
1644798907.229,-49.805,621.094,-30.273,-34.668,0.000,0
1644798907.233,-54.688,-976.562,-27.344,-37.598,0.000,0
1644798907.237,-51.758,901.367,-25.879,-46.875,0.000,0
1644798907.241,-35.156,866.211,-21.484,-55.176,0.000,0
1644798907.244,-21.484,958.496,-24.902,-53.223,0.000,0
1644798907.249,-19.531,-995.117,-25.391,-32.227,0.000,0
1644798907.253,-42.969,820.312,-32.715,-24.902,0.000,0
1644798907.256,-50.781,770.020,-35.645,-41.504,0.000,0
1644798907.260,-37.109,953.125,-26.367,-36.133,0.000,0
1644798907.264,-29.297,-972.656,-24.414,-6.836,0.000,0
1644798907.268,-23.438,760.742,-21.484,-14.160,0.000,0
1644798907.272,-26.367,320.312,-23.926,-37.598,0.000,0
1644798907.276,-41.992,664.551,-30.273,-41.016,0.000,0
1644798907.280,-36.133,992.188,-28.320,-47.852,0.000,0
1644798907.283,-25.879,838.379,-21.973,-46.875,0.000,0
1644798907.287,-41.504,860.840,-24.414,-36.133,0.000,0
1644798907.291,-51.270,990.234,-29.297,-36.621,0.000,0
1644798907.296,-44.434,951.660,-31.738,-43.457,0.000,0
1644798907.299,-29.785,959.961,-32.227,-48.340,0.000,0
1644798907.303,-30.762,954.102,-30.762,-41.016,0.000,0
1644798907.307,-37.109,974.609,-26.855,-30.273,0.000,0
1644798907.311,-45.898,953.125,-31.738,-27.344,0.000,0
1644798907.315,-57.617,541.992,-37.109,-26.855,0.000,0
1644798907.319,-49.805,547.852,-32.227,-35.156,0.000,0
1644798907.323,-42.969,938.965,-32.227,-37.598,0.000,0
1644798907.326,-53.711,998.047,-33.203,-34.180,0.000,0
1644798907.330,-56.152,538.574,-29.785,-28.320,0.000,0
1644798907.334,-59.570,387.695,-28.809,-44.922,0.000,0
1644798907.338,-65.430,862.793,-30.273,-77.148,0.000,0
1644798907.342,-55.176,935.059,-29.785,-62.500,0.000,0
1644798907.346,-42.969,891.113,-29.785,-44.434,0.000,0
1644798907.350,-44.922,955.566,-29.785,-32.227,0.000,0
1644798907.354,-54.199,875.488,-31.250,-39.062,0.000,0
1644798907.358,-52.734,607.422,-35.645,-65.918,0.000,0
1644798907.362,-45.898,562.012,-33.691,-62.012,0.000,0
1644798907.366,-54.688,775.879,-29.785,-43.945,0.000,0
1644798907.369,-58.594,966.797,-34.668,-38.086,0.000,0
1644798907.373,-53.223,200.195,-40.039,-41.504,0.000,0
1644798907.377,-46.875,-310.059,-36.621,-49.316,0.000,0
1644798907.381,-38.086,676.270,-30.762,-52.734,0.000,0
1644798907.385,-45.898,-991.211,-39.551,-59.082,0.000,0
1644798907.389,-58.594,579.102,-43.457,-57.617,0.000,0
1644798907.393,-60.059,223.633,-38.574,-46.875,0.000,0
1644798907.397,-55.664,405.273,-37.109,-57.617,0.000,0
1644798907.401,-47.852,715.820,-39.551,-55.176,0.000,0
1644798907.405,-41.016,713.867,-35.645,-34.180,0.000,0
1644798907.409,-45.898,468.750,-30.762,-33.203,0.000,0
1644798907.412,-59.570,110.352,-35.156,-38.086,0.000,0
1644798907.416,-56.152,-110.352,-40.039,-44.434,0.000,0
1644798907.420,-36.621,-333.496,-34.668,-44.434,0.000,0
1644798907.424,-37.598,166.016,-35.645,-31.738,0.000,0
1644798907.428,-50.781,768.066,-35.156,-36.133,0.000,0
1644798907.432,-55.176,278.320,-33.203,-44.922,0.000,0
1644798907.436,-60.059,-68.848,-38.086,-41.016,0.000,0
1644798907.440,-46.875,357.422,-35.645,-39.551,0.000,0
1644798907.444,-34.668,768.555,-31.738,-37.598,0.000,0
1644798907.448,-38.574,491.211,-40.039,-27.832,0.000,0
1644798907.451,-40.039,10.254,-43.945,-26.367,0.000,0
1644798907.455,-41.992,-203.125,-44.922,-44.434,0.000,0
1644798907.459,-43.457,-66.406,-45.898,-60.059,0.000,0
1644798907.463,-28.320,-70.801,-37.109,-39.062,0.000,0
1644798907.467,-17.578,-260.254,-32.715,-7.812,0.000,0
1644798907.471,-35.156,179.199,-37.598,-31.738,0.000,0
1644798907.475,-45.410,112.793,-40.039,-48.828,0.000,0
1644798907.478,-38.574,-46.387,-37.598,-43.457,0.000,0
1644798907.483,-23.438,329.102,-35.156,-20.996,0.000,0
1644798907.487,-27.832,563.477,-33.691,3.418,0.000,0
1644798907.491,-34.180,247.070,-38.574,-11.230,0.000,0
1644798907.494,-37.598,-221.680,-43.457,-33.203,0.000,0
1644798907.498,-37.109,-138.184,-42.969,-37.598,0.000,0
1644798907.502,-21.484,121.094,-40.039,-30.273,0.000,0
1644798907.506,-20.996,113.281,-36.621,-21.484,0.000,0
1644798907.510,-30.273,-524.902,-35.645,-18.066,0.000,0
1644798907.514,-36.133,-757.812,-34.180,-43.457,0.000,0
1644798907.517,-35.645,-157.715,-33.203,-55.176,0.000,0
1644798907.521,-31.250,37.109,-36.621,-38.086,0.000,0
1644798907.525,-30.273,123.047,-35.645,-34.180,0.000,0
1644798907.530,-31.738,229.980,-33.691,-30.273,0.000,0
1644798907.533,-35.645,46.387,-36.621,-34.180,0.000,0
1644798907.537,-35.156,-294.434,-39.062,-49.805,0.000,0
1644798907.541,-23.438,-120.605,-39.062,-49.805,0.000,0
1644798907.545,-24.414,311.523,-36.133,-33.203,0.000,0
1644798907.549,-32.227,72.266,-35.645,-19.043,0.000,0
1644798907.553,-37.109,-651.855,-37.109,-18.066,0.000,0
1644798907.556,-38.574,-822.266,-34.668,-26.367,0.000,0
1644798907.560,-32.227,-47.852,-33.203,-30.762,0.000,0
1644798907.564,-20.508,320.312,-31.738,-23.438,0.000,0
1644798907.568,-24.902,1.465,-32.227,-20.996,0.000,0
1644798907.572,-42.969,-292.480,-35.156,-19.531,0.000,0
1644798907.576,-45.898,-262.207,-41.016,-34.668,0.000,0
1644798907.580,-38.086,-56.152,-40.039,-49.805,0.000,0
1644798907.584,-23.438,26.367,-35.156,-32.227,0.000,0
1644798907.588,-20.508,148.438,-37.109,-20.996,0.000,0
1644798907.592,-39.062,-24.414,-42.969,-20.508,0.000,0
1644798907.595,-46.387,-495.117,-41.992,-36.621,0.000,0
1644798907.599,-26.367,-851.074,-34.668,-31.738,0.000,0
1644798907.603,-22.461,-509.766,-36.133,-12.695,0.000,0
1644798907.607,-38.086,203.613,-39.551,-16.113,0.000,0
1644798907.611,-43.945,-134.277,-38.574,-26.367,0.000,0
1644798907.615,-45.410,-601.562,-41.504,-51.270,0.000,0
1644798907.619,-41.992,-211.426,-38.574,-62.012,0.000,0
1644798907.623,-27.344,170.410,-39.062,-48.828,0.000,0
1644798907.627,-27.344,-76.172,-42.480,-34.668,0.000,0
1644798907.630,-39.062,-371.094,-41.992,-32.715,0.000,0
1644798907.634,-54.688,-388.184,-41.992,-42.969,0.000,0
1644798907.638,-55.176,-147.461,-40.039,-51.758,0.000,0
1644798907.642,-31.738,-337.402,-33.691,-35.156,0.000,0
1644798907.646,-29.297,-589.355,-28.320,-23.438,0.000,0
1644798907.650,-59.082,-148.438,-27.832,-22.949,0.000,0
1644798907.654,-65.430,-277.832,-29.785,-20.996,0.000,0
1644798907.657,-39.551,-598.633,-32.715,-29.785,0.000,0
1644798907.661,-23.438,-254.883,-34.180,-41.504,0.000,0
1644798907.665,-27.344,247.559,-37.109,-40.039,0.000,0
1644798907.670,-30.273,75.195,-36.621,-31.250,0.000,0
1644798907.674,-33.203,-500.977,-41.504,-47.363,0.000,0
1644798907.677,-28.809,-447.754,-38.574,-55.664,0.000,0
1644798907.681,-20.508,36.133,-26.855,-29.297,0.000,0
1644798907.685,-21.484,-28.809,-27.344,-13.672,0.000,0
1644798907.689,-25.391,-452.637,-30.273,-16.602,0.000,0
1644798907.693,-36.621,-839.355,-32.715,-25.391,0.000,0
1644798907.697,-48.340,-705.078,-33.691,-26.855,0.000,0
1644798907.700,-38.086,-255.859,-26.367,-5.371,0.000,0
1644798907.704,-22.949,-393.555,-25.391,10.254,0.000,0
1644798907.708,-34.180,-285.156,-34.668,-1.465,0.000,0
1644798907.712,-49.805,-228.516,-40.527,-38.574,0.000,0
1644798907.717,-34.180,-581.543,-33.691,-52.246,0.000,0
1644798907.720,-21.484,-406.738,-28.320,-38.086,0.000,0
1644798907.724,-41.016,148.926,-33.203,-45.410,0.000,0
1644798907.728,-51.758,99.609,-37.109,-46.387,0.000,0
1644798907.732,-47.363,-598.633,-35.645,-26.367,0.000,0
1644798907.736,-52.246,-958.008,-32.227,-30.273,0.000,0
1644798907.740,-43.457,-517.578,-29.297,-36.133,0.000,0
1644798907.744,-20.508,-79.590,-34.668,-41.992,0.000,0
1644798907.747,-23.438,-475.586,-37.598,-33.203,0.000,0
1644798907.751,-50.293,-917.480,-36.621,-27.344,0.000,0
1644798907.755,-65.430,-575.195,-38.574,-46.875,0.000,0
1644798907.759,-54.199,-256.836,-38.086,-63.477,0.000,0
1644798907.763,-41.016,-112.793,-41.016,-51.758,0.000,0
1644798907.767,-38.086,25.391,-41.016,-39.551,0.000,0
1644798907.771,-44.922,-120.117,-36.133,-47.363,0.000,0
1644798907.775,-58.594,-515.137,-37.598,-43.457,0.000,0
1644798907.779,-39.551,-545.410,-35.645,-50.293,0.000,0
1644798907.783,-13.184,-265.137,-34.668,-44.434,0.000,0
1644798907.786,-27.344,-217.285,-34.180,-17.578,0.000,0
1644798907.790,-45.898,-532.715,-35.156,-15.625,0.000,0
1644798907.794,-51.758,-898.926,-38.574,-23.438,0.000,0
1644798907.798,-46.875,-609.375,-30.762,-31.250,0.000,0
1644798907.802,-34.668,-76.172,-24.414,-41.992,0.000,0
1644798907.806,-30.762,-36.621,-25.879,-26.855,0.000,0
1644798907.810,-34.668,-330.566,-28.809,-10.742,0.000,0
1644798907.814,-40.039,-477.051,-31.738,-13.184,0.000,0
1644798907.818,-31.738,-308.105,-32.715,-37.598,0.000,0
1644798907.822,-24.414,-143.555,-28.809,-18.066,0.000,0
1644798907.826,-30.762,-51.758,-28.809,-3.418,0.000,0
1644798907.829,-35.156,-286.621,-35.156,-31.738,0.000,0
1644798907.833,-42.969,-579.102,-37.109,-46.387,0.000,0
1644798907.837,-27.832,-791.504,-37.109,-55.176,0.000,0
1644798907.841,-11.719,-689.941,-38.574,-35.645,0.000,0
1644798907.845,-22.461,135.254,-37.598,-33.203,0.000,0
1644798907.849,-37.109,149.414,-37.598,-27.832,0.000,0
1644798907.853,-48.340,-494.629,-41.992,-30.762,0.000,0
1644798907.857,-44.434,-573.242,-41.016,-59.082,0.000,0
1644798907.861,-24.414,-179.199,-31.738,-48.340,0.000,0
1644798907.865,-20.996,50.781,-28.809,-9.277,0.000,0
1644798907.869,-37.598,-88.379,-37.598,-22.949,0.000,0
1644798907.872,-46.387,-420.410,-40.527,-47.363,0.000,0
1644798907.876,-41.992,-655.273,-37.109,-57.129,0.000,0
1644798907.880,-30.762,-470.703,-40.527,-53.711,0.000,0
1644798907.884,-24.414,-593.262,-39.551,-27.832,0.000,0
1644798907.888,-35.645,-509.277,-36.621,-29.297,0.000,0
1644798907.892,-42.969,-217.285,-37.109,-48.828,0.000,0
1644798907.895,-42.480,-641.113,-36.621,-48.828,0.000,0
1644798907.899,-35.645,-531.738,-32.715,-37.109,0.000,0
1644798907.904,-21.973,83.984,-27.832,-26.367,0.000,1
1644798907.908,-13.672,187.500,-24.414,-34.180,0.000,0
1644798907.911,-27.344,-434.570,-30.762,-41.992,0.000,0
1644798907.915,-38.574,-798.340,-40.527,-48.828,0.000,0
1644798907.919,-17.090,-439.453,-36.621,-50.781,0.000,0
1644798907.923,-15.625,-140.625,-35.156,-59.082,0.000,0
1644798907.927,-15.137,-412.598,-36.133,-40.527,0.000,0
1644798907.931,-18.555,-953.125,-30.273,-13.184,0.000,0
1644798907.935,-42.480,-670.410,-28.320,-32.715,0.000,0
1644798907.938,-32.227,-328.613,-28.809,-31.738,0.000,0
1644798907.942,-12.207,-222.656,-31.250,1.465,0.000,0
1644798907.946,-10.254,15.137,-32.715,-7.812,0.000,0
1644798907.950,-29.785,-83.984,-33.203,-39.062,0.000,0
1644798907.954,-39.551,-531.738,-33.691,-52.734,0.000,0
1644798907.958,-30.762,-554.688,-37.109,-53.711,0.000,0
1644798907.962,-18.555,-36.621,-36.133,-44.434,0.000,0
1644798907.966,-0.977,161.133,-31.250,-30.273,0.000,0
1644798907.970,-16.602,-401.367,-35.156,-35.645,0.000,0
1644798907.973,-40.527,-932.129,-39.551,-40.527,0.000,0
1644798907.977,-40.527,-865.723,-39.551,-46.387,0.000,0
1644798907.981,-30.762,-272.949,-37.109,-43.945,0.000,0
1644798907.985,-21.484,18.066,-36.621,-26.855,0.000,0
1644798907.989,-26.855,-305.664,-34.180,-7.324,0.000,0
1644798907.993,-38.086,-550.293,-32.227,-25.879,0.000,0
1644798907.997,-46.875,-368.652,-34.668,-45.898,0.000,0
1644798908.001,-41.992,-170.898,-36.133,-31.250,0.000,0
1644798908.005,-41.016,-93.750,-38.574,-25.391,0.000,0
1644798908.009,-50.781,-1.953,-39.551,-19.531,0.000,0
1644798908.012,-49.316,-418.457,-38.574,-25.391,0.000,0
1644798908.016,-39.551,-920.898,-33.691,-42.480,0.000,0
1644798908.020,-29.297,-722.168,-27.344,-48.340,0.000,0
1644798908.024,-27.832,-11.230,-26.855,-33.203,0.000,0
1644798908.028,-31.250,68.359,-31.250,-15.137,0.000,0
1644798908.032,-40.039,-599.121,-31.250,-12.207,0.000,0
1644798908.036,-41.016,-968.750,-32.227,-20.508,0.000,0
1644798908.039,-26.855,-337.891,-29.297,-28.809,0.000,0
1644798908.044,-5.859,192.383,-26.367,-24.902,0.000,0
1644798908.048,-5.371,-24.902,-29.297,-9.766,0.000,0
1644798908.052,-26.367,-474.609,-29.785,-20.508,0.000,0
1644798908.055,-33.691,-545.410,-26.855,-33.203,0.000,0
1644798908.059,-25.391,-224.609,-27.344,-26.855,0.000,0
1644798908.063,-20.996,-252.930,-33.691,-15.625,0.000,0
1644798908.067,-23.438,-437.988,-34.668,-13.184,0.000,0
1644798908.071,-39.062,-629.883,-34.180,-19.043,0.000,0
1644798908.075,-49.805,-742.676,-35.645,-30.273,0.000,0
1644798908.079,-30.273,-719.727,-35.645,-26.367,0.000,0
1644798908.082,-20.508,-218.262,-33.203,-28.809,0.000,0
1644798908.086,-24.902,239.258,-31.250,-39.062,0.000,0
1644798908.091,-32.715,-340.820,-32.715,-41.992,0.000,0
1644798908.095,-36.621,-979.980,-39.062,-44.434,0.000,0
1644798908.098,-20.996,-512.695,-38.086,-47.852,0.000,0
1644798908.102,-19.043,146.484,-31.250,-28.809,0.000,0
1644798908.106,-28.809,-11.719,-32.715,-3.418,0.000,0
1644798908.110,-35.156,-701.660,-40.039,-18.066,0.000,0
1644798908.114,-41.992,-918.945,-36.133,-37.598,0.000,0
1644798908.118,-35.645,-366.699,-28.809,-41.016,0.000,0
1644798908.122,-21.973,-387.695,-31.738,-20.996,0.000,0
1644798908.125,-27.344,-657.227,-33.691,-12.207,0.000,0
1644798908.129,-37.598,-296.875,-29.785,-22.949,0.000,0
1644798908.133,-42.480,-526.855,-35.156,-19.043,0.000,0
1644798908.138,-33.203,-596.191,-39.062,-25.391,0.000,0
1644798908.141,-26.367,-107.910,-38.574,-30.273,0.000,0
1644798908.145,-28.809,223.145,-39.551,-14.160,0.000,0
1644798908.149,-30.273,-160.156,-36.621,-10.254,0.000,0
1644798908.153,-31.738,-833.008,-32.227,-35.156,0.000,0
1644798908.157,-20.508,-840.820,-30.762,-48.340,0.000,0
1644798908.161,-4.395,-412.109,-31.250,-30.273,0.000,0
1644798908.165,-13.672,-221.680,-31.738,-19.043,0.000,0
1644798908.168,-35.156,-656.738,-37.598,-10.742,0.000,0
1644798908.172,-47.363,-861.328,-39.551,-21.484,0.000,0
1644798908.176,-39.062,-409.180,-35.645,-46.387,0.000,0
1644798908.180,-16.113,-174.805,-26.855,-22.461,0.000,0
1644798908.184,-12.207,-48.828,-25.391,-17.578,0.000,0
1644798908.188,-25.879,9.766,-31.250,-27.344,0.000,0
1644798908.192,-43.945,-338.379,-33.691,-20.996,0.000,0
1644798908.196,-42.969,-672.363,-31.250,-23.926,0.000,0
1644798908.200,-24.902,-404.785,-29.785,-23.926,0.000,0
1644798908.204,-23.438,-117.188,-30.762,-24.414,0.000,0
1644798908.208,-28.320,-225.586,-30.762,-14.648,0.000,0
1644798908.211,-26.855,-665.039,-37.598,-3.906,0.000,0
1644798908.215,-20.508,-902.344,-42.969,-16.602,0.000,0
1644798908.219,-14.160,-268.555,-34.668,-35.156,0.000,0
1644798908.223,-18.066,188.477,-29.785,-17.090,0.000,0
1644798908.227,-20.508,-104.980,-30.273,7.324,0.000,0
1644798908.231,-25.391,-509.766,-28.320,1.953,0.000,0
1644798908.235,-30.273,-487.305,-29.785,-33.691,0.000,0
1644798908.239,-19.531,-243.164,-29.297,-35.645,0.000,0
1644798908.243,-18.555,-57.617,-27.832,-20.508,0.000,0
1644798908.247,-20.996,-36.621,-32.715,-14.648,0.000,0
1644798908.250,-32.227,-473.633,-37.598,-13.184,0.000,0
1644798908.254,-38.086,-900.879,-40.527,-23.438,0.000,0
1644798908.258,-22.949,-947.754,-35.645,-13.672,0.000,0
1644798908.262,-14.160,-358.398,-28.320,0.000,0.000,0
1644798908.266,-18.066,209.961,-25.391,-5.859,0.000,0
1644798908.270,-40.039,-326.660,-21.484,-4.883,0.000,0
1644798908.274,-48.340,-819.824,-24.414,-15.137,0.000,0
1644798908.278,-41.016,-368.164,-30.273,-33.203,0.000,0
1644798908.282,-28.809,174.316,-29.297,-25.391,0.000,0
1644798908.286,-27.832,-22.949,-34.668,-13.672,0.000,0
1644798908.290,-34.668,-442.383,-39.062,-17.578,0.000,0
1644798908.293,-35.156,-571.289,-34.180,-21.484,0.000,0
1644798908.297,-30.762,-584.473,-30.273,-20.508,0.000,0
1644798908.301,-8.789,-614.746,-31.250,-12.695,0.000,0
1644798908.305,-3.418,-696.289,-35.645,-16.113,0.000,0
1644798908.309,-17.090,-310.547,-34.668,-17.090,0.000,0
1644798908.313,-23.926,-413.574,-31.250,-17.578,0.000,0
1644798908.317,-21.973,-640.625,-31.738,-31.738,0.000,0
1644798908.320,-14.160,-181.152,-38.574,-40.527,0.000,0
1644798908.325,-16.602,268.066,-39.062,-31.738,0.000,0
1644798908.329,-30.273,-83.008,-36.621,-20.508,0.000,0
1644798908.332,-40.527,-712.402,-40.039,-31.250,0.000,0
1644798908.336,-42.480,-557.617,-37.109,-36.133,0.000,0
1644798908.340,-20.996,-21.484,-26.855,-26.367,0.000,0
1644798908.344,-18.066,0.977,-27.832,-27.832,0.000,0
1644798908.348,-31.250,-622.559,-33.691,-27.832,0.000,0
1644798908.352,-45.898,-1000.000,-40.039,-29.785,0.000,0
1644798908.355,-46.387,-603.516,-35.156,-42.480,0.000,0
1644798908.359,-27.832,-197.754,-30.273,-41.016,0.000,0
1644798908.363,-33.691,-108.398,-36.133,-39.062,0.000,0
1644798908.367,-42.480,30.762,-38.086,-38.574,0.000,0
1644798908.371,-50.293,-203.613,-40.527,-45.410,0.000,0
1644798908.375,-56.152,-639.648,-46.387,-54.199,0.000,0
1644798908.379,-41.504,-441.895,-44.922,-56.152,0.000,0
1644798908.383,-38.086,164.062,-41.504,-48.340,0.000,0
1644798908.387,-47.852,38.086,-41.016,-29.785,0.000,0
1644798908.391,-47.363,-681.152,-41.016,-16.113,0.000,0
1644798908.394,-46.387,-977.051,-41.016,-34.180,0.000,0
1644798908.398,-46.387,-357.910,-36.133,-59.570,0.000,0
1644798908.402,-42.969,251.465,-41.992,-52.246,0.000,0
1644798908.406,-43.457,-224.121,-51.758,-36.133,0.000,0
1644798908.410,-50.781,-707.520,-51.758,-40.039,0.000,0
1644798908.414,-53.223,-527.344,-52.734,-55.176,0.000,0
1644798908.418,-38.574,-268.555,-45.898,-47.852,0.000,0
1644798908.422,-26.367,-97.168,-39.551,-20.508,0.000,0
1644798908.426,-27.344,28.809,-38.574,-28.809,0.000,0
1644798908.430,-40.527,-86.426,-36.133,-30.762,0.000,0
1644798908.434,-42.969,-526.855,-36.133,-20.508,0.000,0
1644798908.437,-27.832,-717.773,-33.203,-30.273,0.000,0
1644798908.441,-18.066,-426.270,-30.762,-37.109,0.000,0
1644798908.445,-20.020,-177.734,-34.668,-42.969,0.000,0
1644798908.449,-30.762,-460.938,-37.598,-37.109,0.000,0
1644798908.453,-38.086,-911.133,-36.621,-36.621,0.000,0
1644798908.457,-37.109,-576.660,-36.133,-50.293,0.000,0
1644798908.461,-21.484,119.141,-30.273,-35.645,0.000,0
1644798908.465,-27.832,56.152,-33.203,-22.949,0.000,0
1644798908.469,-51.270,-308.594,-38.574,-19.531,0.000,0
1644798908.473,-48.340,-475.098,-35.645,-15.625,0.000,0
1644798908.477,-34.180,-366.211,-40.039,-37.109,0.000,0
1644798908.481,-32.715,-196.289,-47.363,-52.734,0.000,0
1644798908.484,-31.738,-274.414,-41.016,-38.086,0.000,0
1644798908.488,-39.062,-357.910,-35.645,-33.203,0.000,0
1644798908.492,-56.641,-454.590,-35.156,-35.156,0.000,0
1644798908.496,-45.898,-802.246,-36.133,-41.992,0.000,0
1644798908.500,-27.832,-765.625,-34.180,-32.715,0.000,0
1644798908.504,-29.785,-139.648,-36.133,-33.203,0.000,0
1644798908.508,-37.598,-126.465,-41.992,-46.875,0.000,0
1644798908.512,-42.969,-666.504,-40.527,-44.922,0.000,0
1644798908.516,-37.598,-717.285,-39.551,-54.688,0.000,0
1644798908.520,-24.414,-41.504,-38.574,-58.594,0.000,0
1644798908.524,-11.719,190.430,-40.039,-43.945,0.000,0
1644798908.527,-13.672,-104.980,-42.969,-33.691,0.000,0
1644798908.531,-29.297,-654.785,-45.898,-33.203,0.000,0
1644798908.535,-29.785,-888.184,-43.457,-36.621,0.000,0
1644798908.539,-20.996,-471.680,-39.062,-42.969,0.000,0
1644798908.543,-20.508,-535.156,-38.574,-25.879,0.000,0
1644798908.547,-19.043,-365.723,-37.598,-11.719,0.000,0
1644798908.551,-41.504,-109.375,-41.016,-28.320,0.000,0
1644798908.554,-57.617,-602.051,-45.898,-27.344,0.000,0
1644798908.559,-37.109,-425.293,-45.898,-23.438,0.000,0
1644798908.563,-29.785,45.410,-45.410,-28.809,0.000,0
1644798908.567,-29.297,102.539,-43.457,-24.902,0.000,0
1644798908.570,-37.598,-376.465,-39.062,-21.484,0.000,0
1644798908.574,-44.922,-754.883,-37.598,-41.504,0.000,0
1644798908.578,-28.809,-487.793,-34.180,-50.293,0.000,0
1644798908.582,-21.973,-153.809,-34.180,-37.109,0.000,0
1644798908.586,-36.133,-349.121,-39.062,-31.738,0.000,0
1644798908.590,-40.039,-847.656,-34.668,-26.367,0.000,0
1644798908.594,-48.340,-616.211,-27.344,-36.133,0.000,0
1644798908.597,-53.711,-294.434,-27.832,-48.828,0.000,0
1644798908.601,-37.598,-109.375,-28.809,-32.715,0.000,0
1644798908.606,-31.250,62.012,-31.738,-21.973,0.000,0
1644798908.609,-34.180,-11.230,-30.273,-16.602,0.000,0
1644798908.613,-41.016,-447.754,-29.785,-16.602,0.000,0
1644798908.617,-36.133,-507.812,-30.273,-28.320,0.000,0
1644798908.621,-22.461,-116.699,-25.391,-17.090,0.000,0
1644798908.625,-24.414,-76.660,-29.785,-13.184,0.000,0
1644798908.629,-43.457,-450.195,-38.086,-13.184,0.000,0
1644798908.633,-51.758,-906.738,-36.621,-16.602,0.000,0
1644798908.636,-36.133,-695.312,-32.715,-41.016,0.000,0
1644798908.640,-14.648,49.316,-29.785,-43.945,0.000,0
1644798908.644,-25.879,148.438,-29.785,-23.438,0.000,0
1644798908.648,-50.781,-206.543,-33.203,-26.367,0.000,0
1644798908.652,-49.805,-412.109,-30.273,-37.109,0.000,0
1644798908.656,-37.598,-343.750,-29.297,-37.598,0.000,0
1644798908.660,-29.785,-204.590,-32.715,-30.273,0.000,0
1644798908.664,-34.180,-20.996,-33.691,-15.137,0.000,0
1644798908.668,-42.480,41.992,-28.809,-8.301,0.000,0
1644798908.672,-41.504,-607.910,-32.227,-21.973,0.000,0
1644798908.675,-36.133,-1000.000,-34.668,-33.203,0.000,0
1644798908.679,-34.180,-825.684,-33.691,-33.691,0.000,0
1644798908.683,-28.809,-138.672,-35.645,-41.016,0.000,0
1644798908.687,-29.785,153.320,-39.551,-27.344,0.000,0
1644798908.691,-40.527,-485.840,-40.527,-19.531,0.000,0
1644798908.695,-37.109,-708.984,-31.738,-36.133,0.000,0
1644798908.699,-28.320,-140.137,-27.832,-34.180,0.000,1
1644798908.703,-20.508,186.035,-32.715,-20.508,0.000,0
1644798908.707,-20.996,-84.961,-36.621,-15.625,0.000,0
1644798908.711,-38.086,-426.758,-38.574,-30.273,0.000,0
1644798908.714,-41.992,-573.730,-40.527,-38.574,0.000,0
1644798908.718,-31.250,-441.406,-37.598,-42.480,0.000,0
1644798908.722,-27.344,-644.043,-39.062,-25.879,0.000,0
1644798908.726,-31.250,-664.551,-42.480,-17.578,0.000,0
1644798908.730,-44.922,-313.965,-38.086,-23.438,0.000,0
1644798908.734,-40.039,-591.797,-35.645,-22.949,0.000,0
1644798908.738,-18.066,-670.898,-33.203,-29.785,0.000,0
1644798908.741,-14.160,-140.137,-32.715,-25.391,0.000,0
1644798908.746,-15.137,282.227,-33.691,-25.879,0.000,0
1644798908.750,-23.926,-209.961,-35.156,-21.484,0.000,0
1644798908.753,-35.156,-767.578,-38.086,-25.879,0.000,0
1644798908.757,-31.738,-405.273,-36.133,-42.969,0.000,0
1644798908.761,-27.832,130.859,-29.785,-40.527,0.000,0
1644798908.765,-24.902,-252.930,-27.344,-22.461,0.000,0
1644798908.769,-39.062,-854.980,-31.250,-9.766,0.000,0
1644798908.773,-52.246,-677.246,-28.320,-26.367,0.000,0
1644798908.777,-34.180,-355.957,-26.367,-35.156,0.000,0
1644798908.780,-19.531,-234.375,-31.738,-19.043,0.000,0
1644798908.784,-27.344,-91.309,-33.203,-14.160,0.000,0
1644798908.788,-41.016,-15.625,-33.203,-24.414,0.000,0
1644798908.793,-56.641,-456.055,-39.062,-34.668,0.000,0
1644798908.797,-48.340,-769.043,-41.992,-41.504,0.000,0
1644798908.800,-29.297,-358.398,-35.156,-45.410,0.000,0
1644798908.804,-22.461,231.445,-29.297,-33.691,0.000,0
1644798908.808,-23.926,36.621,-27.832,-13.672,0.000,0
1644798908.812,-39.551,-737.305,-28.809,-19.531,0.000,0
1644798908.816,-40.039,-951.660,-31.738,-38.086,0.000,0
1644798908.820,-24.902,-395.508,-31.250,-24.414,0.000,0
1644798908.824,-19.531,19.043,-28.320,-6.836,0.000,0
1644798908.827,-26.855,-445.801,-27.344,7.324,0.000,0
1644798908.831,-41.016,-773.438,-30.762,-20.020,0.000,0
1644798908.835,-36.133,-484.375,-34.180,-58.594,0.000,0
1644798908.840,-21.973,-262.695,-38.086,-51.270,0.000,0
1644798908.843,-18.555,-58.594,-37.598,-27.344,0.000,0
1644798908.847,-21.484,95.703,-36.133,-20.508,0.000,0
1644798908.851,-35.645,-268.555,-35.645,-31.250,0.000,0
1644798908.855,-45.410,-747.070,-34.180,-29.785,0.000,0
1644798908.859,-35.645,-640.625,-34.668,-29.785,0.000,0
1644798908.863,-20.020,-174.805,-36.133,-31.250,0.000,0
1644798908.867,-19.043,82.031,-31.738,-22.461,0.000,0
1644798908.870,-28.809,-482.910,-36.621,-14.648,0.000,0
1644798908.874,-35.156,-964.355,-42.969,-16.602,0.000,0
1644798908.878,-27.832,-313.965,-30.762,-23.926,0.000,0
1644798908.882,-12.695,189.941,-26.367,-22.949,0.000,0
1644798908.886,-15.137,25.391,-32.227,-12.207,0.000,0
1644798908.890,-38.574,-330.566,-36.133,-17.090,0.000,0
1644798908.894,-45.898,-513.184,-39.551,-34.180,0.000,0
1644798908.898,-26.855,-302.246,-33.203,-35.645,0.000,0
1644798908.902,-17.090,-83.008,-27.344,-26.367,0.000,0
1644798908.906,-17.578,-146.973,-32.227,-24.414,0.000,0
1644798908.910,-29.297,-562.012,-38.574,-25.879,0.000,0
1644798908.913,-35.645,-945.312,-41.992,-44.922,0.000,0
1644798908.917,-20.020,-963.379,-39.062,-41.992,0.000,0
1644798908.921,-6.836,-346.680,-39.062,-23.438,0.000,0
1644798908.925,-20.996,250.977,-37.598,-18.555,0.000,0
1644798908.929,-33.691,-211.426,-32.227,0.977,0.000,0
1644798908.933,-35.156,-785.645,-36.621,-9.277,0.000,0
1644798908.937,-27.344,-416.992,-35.645,-22.949,0.000,0
1644798908.941,-7.812,164.551,-30.762,-12.695,0.000,0
1644798908.945,-12.695,75.195,-34.668,-14.648,0.000,0
1644798908.949,-41.992,-316.895,-37.598,-9.766,0.000,0
1644798908.953,-53.223,-734.863,-35.645,-7.812,0.000,0
1644798908.956,-41.504,-773.438,-33.203,-19.531,0.000,0
1644798908.960,-36.133,-617.676,-28.809,-16.602,0.000,0
1644798908.964,-35.156,-617.188,-28.320,-18.555,0.000,0
1644798908.968,-36.621,-121.582,-26.367,-25.879,0.000,0
1644798908.972,-43.945,-445.312,-26.855,-33.691,0.000,0
1644798908.976,-45.410,-807.617,-29.297,-43.457,0.000,0
1644798908.980,-29.297,-204.102,-23.438,-36.133,0.000,0
1644798908.984,-23.438,292.480,-20.020,-17.578,0.000,0
1644798908.988,-35.645,78.125,-25.879,-8.789,0.000,0
1644798908.992,-50.781,-638.184,-33.691,-20.508,0.000,0
1644798908.995,-45.898,-687.988,-37.598,-31.250,0.000,0
1644798908.999,-26.855,-304.199,-36.621,-24.414,0.000,0
1644798909.003,-25.879,-187.500,-33.691,-23.438,0.000,0
1644798909.007,-31.250,-600.586,-34.668,-17.578,0.000,0
1644798909.011,-49.805,-876.465,-31.250,-11.719,0.000,0
1644798909.015,-56.152,-485.840,-28.809,-15.137,0.000,0
1644798909.019,-34.180,-245.605,-30.273,-25.391,0.000,0
1644798909.023,-17.578,-48.828,-29.785,-45.410,0.000,0
1644798909.027,-19.531,101.074,-31.738,-43.457,0.000,0
1644798909.031,-27.344,-346.680,-34.180,-35.645,0.000,0
1644798909.035,-30.762,-907.715,-32.715,-34.668,0.000,0
1644798909.038,-31.250,-539.062,-29.785,-50.781,0.000,0
1644798909.042,-24.902,159.180,-29.297,-48.828,0.000,0
1644798909.046,-16.602,-27.344,-26.367,-33.203,0.000,0
1644798909.050,-26.367,-703.125,-27.832,-31.738,0.000,0
1644798909.054,-35.156,-950.684,-32.227,-26.855,0.000,0
1644798909.058,-22.949,-373.535,-32.227,-34.180,0.000,0
1644798909.062,-15.137,180.176,-28.809,-30.273,0.000,0
1644798909.065,-29.297,18.555,-30.273,-15.625,0.000,0
1644798909.069,-44.922,-317.871,-30.273,-8.301,0.000,0
1644798909.074,-48.828,-450.195,-29.785,-36.621,0.000,0
1644798909.077,-30.273,-310.059,-29.785,-51.758,0.000,0
1644798909.081,-13.672,-63.477,-28.320,-28.809,0.000,0
1644798909.085,-15.137,70.312,-29.785,-18.555,0.000,0
1644798909.089,-24.414,-183.594,-32.227,-23.438,0.000,0
1644798909.093,-33.691,-768.555,-31.250,-34.180,0.000,0
1644798909.097,-32.227,-909.668,-31.250,-48.340,0.000,0
1644798909.101,-25.391,-476.074,-34.668,-42.480,0.000,0
1644798909.104,-24.414,14.160,-35.156,-33.203,0.000,0
1644798909.108,-32.715,-166.992,-34.180,-29.297,0.000,0
1644798909.112,-40.039,-803.223,-35.645,-41.016,0.000,0
1644798909.116,-35.156,-551.758,-34.180,-54.199,0.000,0
1644798909.120,-20.508,138.672,-32.227,-44.922,0.000,0
1644798909.124,-24.902,109.863,-35.156,-29.297,0.000,0
1644798909.128,-42.480,-274.902,-37.109,-15.137,0.000,0
1644798909.132,-42.969,-471.191,-35.645,-34.668,0.000,0
1644798909.136,-34.668,-354.492,-36.133,-41.992,0.000,0
1644798909.140,-36.621,-456.543,-31.250,-33.691,0.000,0
1644798909.143,-36.133,-557.617,-24.902,-35.645,0.000,0
1644798909.147,-35.645,-125.977,-27.832,-20.996,0.000,0
1644798909.151,-31.250,-567.383,-30.762,-21.484,0.000,0
1644798909.155,-31.738,-951.172,-33.691,-38.086,0.000,0
1644798909.159,-30.762,-371.094,-32.227,-43.457,0.000,0
1644798909.163,-27.344,217.285,-28.809,-35.645,0.000,0
1644798909.167,-26.855,120.117,-25.879,-20.020,0.000,0
1644798909.171,-30.273,-507.324,-26.367,-32.227,0.000,0
1644798909.175,-31.738,-638.672,-29.297,-56.152,0.000,0
1644798909.179,-22.949,-51.758,-27.344,-50.293,0.000,0
1644798909.183,-18.066,254.395,-25.879,-24.902,0.000,0
1644798909.186,-27.344,-157.227,-28.320,-22.949,0.000,0
1644798909.190,-44.434,-730.469,-29.785,-31.250,0.000,0
1644798909.194,-49.316,-838.379,-35.645,-37.109,0.000,0
1644798909.198,-34.180,-430.176,-40.039,-44.434,0.000,0
1644798909.202,-23.438,-413.574,-38.574,-28.320,0.000,0
1644798909.206,-30.762,-319.336,-34.668,-24.902,0.000,0
1644798909.210,-34.668,-368.164,-36.133,-23.438,0.000,0
1644798909.214,-32.227,-796.387,-39.551,-22.461,0.000,0
1644798909.218,-22.949,-517.578,-41.016,-39.062,0.000,0
1644798909.222,-17.578,105.469,-41.992,-46.387,0.000,0
1644798909.226,-13.184,231.445,-41.016,-31.250,0.000,0
1644798909.230,-13.672,-326.660,-44.434,-19.531,0.000,0
1644798909.233,-25.879,-1000.000,-45.410,-40.527,0.000,0
1644798909.237,-25.879,-702.148,-40.527,-46.875,0.000,0
1644798909.241,-14.160,115.723,-39.062,-37.109,0.000,0
1644798909.245,-24.414,-223.633,-42.480,-26.855,0.000,0
1644798909.249,-42.480,-911.133,-33.203,-10.742,0.000,0
1644798909.253,-45.410,-634.766,-23.926,-20.508,0.000,0
1644798909.257,-36.621,-338.379,-27.832,-30.762,0.000,0
1644798909.261,-26.855,-92.285,-33.691,-24.414,0.000,0
1644798909.265,-25.391,73.730,-37.598,-5.371,0.000,0
1644798909.269,-29.785,-170.410,-34.668,2.930,0.000,0
1644798909.273,-38.086,-570.312,-31.738,-17.578,0.000,0
1644798909.276,-32.227,-639.648,-30.273,-23.438,0.000,0
1644798909.280,-16.602,-361.816,-27.344,-7.812,0.000,0
1644798909.284,-19.531,-154.785,-25.879,-8.301,0.000,0
1644798909.288,-23.926,-363.281,-33.691,-12.207,0.000,0
1644798909.292,-26.367,-873.047,-38.574,-17.090,0.000,0
1644798909.296,-43.457,-708.984,-36.133,-38.086,0.000,0
1644798909.300,-31.250,58.105,-34.180,-35.645,0.000,0
1644798909.303,-21.973,138.184,-37.598,-31.738,0.000,0
1644798909.308,-34.180,-185.059,-39.062,-32.227,0.000,0
1644798909.312,-43.457,-415.527,-35.156,-26.855,0.000,0
1644798909.316,-39.551,-445.312,-33.691,-23.926,0.000,0
1644798909.319,-24.902,-252.441,-30.762,-23.438,0.000,0
1644798909.323,-11.719,-71.777,-29.297,-22.949,0.000,0
1644798909.327,-11.230,-93.750,-35.156,-18.066,0.000,0
1644798909.331,-26.855,-662.109,-41.992,-42.480,0.000,0
1644798909.335,-41.504,-1000.000,-42.969,-58.105,0.000,0
1644798909.339,-32.227,-738.770,-39.551,-39.551,0.000,0
1644798909.343,-20.020,40.039,-36.133,-26.367,0.000,0
1644798909.346,-21.484,209.473,-38.086,-10.742,0.000,0
1644798909.350,-32.715,-401.855,-40.039,-18.066,0.000,0
1644798909.355,-40.527,-651.855,-36.621,-39.551,0.000,0
1644798909.358,-35.156,-124.023,-33.203,-34.180,0.000,0
1644798909.362,-22.949,169.434,-36.133,-27.832,0.000,0
1644798909.366,-20.020,-16.113,-35.645,-32.715,0.000,0
1644798909.370,-26.855,-326.660,-33.203,-36.133,0.000,0
1644798909.374,-35.156,-742.676,-29.785,-36.621,0.000,0
1644798909.378,-30.762,-622.070,-33.203,-35.645,0.000,0
1644798909.382,-20.996,-615.234,-36.133,-17.090,0.000,0
1644798909.385,-18.555,-522.461,-29.297,-5.371,0.000,0
1644798909.389,-30.273,-170.898,-27.832,-20.996,0.000,0
1644798909.393,-34.668,-571.777,-32.227,-25.879,0.000,0
1644798909.397,-19.531,-675.293,-36.621,-23.926,0.000,0
1644798909.401,-9.766,-73.242,-35.156,-23.438,0.000,0
1644798909.405,-18.555,270.508,-37.109,-11.230,0.000,0
1644798909.409,-18.066,-204.102,-41.016,-10.742,0.000,0
1644798909.413,-18.066,-800.293,-37.109,-21.484,0.000,0
1644798909.417,-25.879,-467.285,-31.738,-16.113,0.000,0
1644798909.421,-15.137,-83.984,-34.668,-15.625,0.000,0
1644798909.425,-11.719,-376.465,-39.551,-8.789,0.000,0
1644798909.428,-23.926,-798.340,-41.504,-13.672,0.000,0
1644798909.432,-36.133,-647.949,-39.062,-30.762,0.000,0
1644798909.436,-31.738,-334.961,-31.738,-42.480,0.000,0
1644798909.440,-20.020,-219.727,-31.738,-46.875,0.000,0
1644798909.444,-14.160,-136.230,-35.156,-30.273,0.000,0
1644798909.448,-17.090,11.719,-32.227,-22.461,0.000,0
1644798909.452,-15.625,-318.848,-27.344,-26.367,0.000,0
1644798909.456,-19.043,-583.496,-26.367,-39.062,0.000,0
1644798909.460,-18.066,-130.371,-31.738,-33.203,0.000,0
1644798909.464,-7.324,290.527,-34.180,-20.996,0.000,0
1644798909.467,-23.926,-48.828,-41.016,-29.785,0.000,0
1644798909.471,-41.504,-810.547,-43.457,-33.691,0.000,0
1644798909.475,-35.156,-879.395,-37.109,-35.156,0.000,0
1644798909.479,-19.531,-149.902,-29.785,-30.762,0.000,0
1644798909.483,-13.672,160.645,-27.344,-10.742,0.000,0
1644798909.487,-18.555,-56.152,-26.367,-0.977,0.000,0
1644798909.491,-28.809,-299.316,-28.320,-25.879,0.000,0
1644798909.495,-24.414,-343.262,-29.785,-53.711,0.000,0
1644798909.499,-12.695,-262.695,-31.250,-44.434,0.000,0
1644798909.503,-17.090,-200.195,-36.621,-27.832,0.000,0
1644798909.506,-26.855,68.848,-37.109,-23.926,0.000,0
1644798909.510,-33.203,-194.336,-37.598,-23.438,0.000,0
1644798909.514,-33.203,-859.375,-39.062,-33.203,0.000,0
1644798909.518,-28.809,-770.020,-37.109,-28.320,0.000,0
1644798909.522,-20.508,28.320,-28.809,-9.277,0.000,0
1644798909.526,-17.578,294.434,-26.367,-9.766,0.000,0
1644798909.530,-29.785,-441.895,-33.203,-14.160,0.000,0
1644798909.533,-40.527,-899.414,-40.527,-23.926,0.000,0
1644798909.537,-28.809,-292.480,-43.457,-41.992,0.000,0
1644798909.542,-20.996,163.574,-41.016,-42.480,0.000,0
1644798909.546,-38.574,51.270,-41.016,-33.691,0.000,0
1644798909.549,-56.152,-294.922,-42.480,-23.438,0.000,0
1644798909.553,-47.852,-486.816,-38.086,-18.066,0.000,0
1644798909.557,-32.227,-365.723,-35.645,-29.297,0.000,0
1644798909.561,-28.320,-305.664,-32.715,-26.855,0.000,0
1644798909.565,-18.066,-271.484,-27.344,-13.672,0.000,0
1644798909.569,-19.531,-456.055,-30.273,-11.230,0.000,0
1644798909.573,-42.480,-847.656,-34.668,-27.832,0.000,0
1644798909.576,-45.898,-898.926,-35.645,-38.574,0.000,0
1644798909.580,-27.344,-304.199,-40.527,-31.738,0.000,0
1644798909.584,-24.414,298.828,-42.480,-35.645,0.000,0
1644798909.589,-38.086,-101.562,-43.457,-45.898,0.000,0
1644798909.593,-45.898,-687.012,-41.504,-31.250,0.000,0
1644798909.596,-40.039,-478.516,-37.598,-32.227,0.000,0
1644798909.600,-23.438,57.129,-34.180,-50.293,0.000,0
1644798909.604,-13.184,70.801,-28.809,-28.320,0.000,0
1644798909.608,-18.066,-510.742,-34.668,-6.348,0.000,1
1644798909.612,-31.738,-831.055,-40.039,-11.230,0.000,0
1644798909.616,-38.086,-475.586,-36.133,-36.133,0.000,0
1644798909.620,-26.367,-475.098,-33.691,-29.297,0.000,0
1644798909.623,-15.625,-682.617,-30.762,-18.066,0.000,0
1644798909.627,-20.996,-173.828,-26.855,-18.555,0.000,0
1644798909.631,-39.551,-350.586,-31.738,-25.391,0.000,0
1644798909.636,-45.410,-733.398,-31.250,-44.434,0.000,0
1644798909.639,-30.762,-279.297,-29.785,-40.527,0.000,0
1644798909.643,-19.531,251.465,-32.227,-31.738,0.000,0
1644798909.647,-36.133,123.047,-32.715,-31.738,0.000,0
1644798909.651,-54.199,-551.270,-36.621,-34.668,0.000,0
1644798909.655,-48.828,-959.961,-40.527,-41.504,0.000,0
1644798909.659,-28.809,-587.402,-32.227,-41.992,0.000,0
1644798909.663,-19.043,-142.578,-20.996,-26.367,0.000,0
1644798909.666,-30.273,-518.555,-22.949,-9.766,0.000,0
1644798909.670,-51.758,-770.996,-30.273,-21.484,0.000,0
1644798909.674,-54.688,-495.605,-33.203,-44.434,0.000,0
1644798909.678,-32.715,-427.734,-31.738,-41.992,0.000,0
1644798909.682,-19.043,-89.355,-28.320,-28.320,0.000,0
1644798909.686,-20.996,198.242,-27.344,-17.578,0.000,0
1644798909.690,-35.156,-77.637,-29.785,-26.855,0.000,0
1644798909.694,-38.574,-669.922,-33.691,-39.551,0.000,0
1644798909.698,-23.926,-593.262,-32.227,-23.926,0.000,0
1644798909.702,-9.766,-124.512,-27.832,-12.207,0.000,0
1644798909.706,-15.137,-14.160,-28.320,-31.250,0.000,0
1644798909.709,-33.691,-430.176,-35.156,-27.832,0.000,0
1644798909.713,-39.062,-999.512,-36.133,-23.438,0.000,0
1644798909.717,-25.879,-468.262,-30.273,-31.738,0.000,0
1644798909.721,-14.160,175.293,-33.203,-18.066,0.000,0
1644798909.725,-20.508,22.949,-38.086,-8.789,0.000,0
1644798909.729,-40.039,-255.859,-39.062,-19.043,0.000,0
1644798909.733,-50.781,-412.109,-38.574,-33.691,0.000,0
1644798909.737,-38.086,-532.227,-36.133,-37.598,0.000,0
1644798909.741,-22.949,-218.750,-35.156,-35.645,0.000,0
1644798909.745,-13.672,111.328,-26.367,-19.531,0.000,0
1644798909.749,-23.926,-248.535,-26.855,-4.883,0.000,0
1644798909.752,-41.016,-824.219,-31.738,-29.297,0.000,0
1644798909.756,-35.645,-1000.000,-28.809,-33.691,0.000,0
1644798909.760,-20.996,-403.809,-27.832,-21.484,0.000,0
1644798909.764,-23.438,317.871,-31.250,-29.785,0.000,0
1644798909.768,-31.738,6.348,-33.691,-33.691,0.000,0
1644798909.772,-33.691,-656.250,-32.715,-32.227,0.000,0
1644798909.776,-25.391,-544.434,-31.738,-34.180,0.000,0
1644798909.780,-17.578,30.273,-26.855,-10.254,0.000,0
1644798909.784,-14.160,72.754,-27.344,1.953,0.000,0
1644798909.788,-10.254,-170.410,-33.203,-15.625,0.000,0
1644798909.791,-26.367,-494.141,-32.227,-22.461,0.000,0
1644798909.795,-31.738,-754.883,-31.738,-35.156,0.000,0
1644798909.799,-16.113,-723.145,-28.809,-19.043,0.000,0
1644798909.803,-8.789,-661.133,-23.438,5.371,0.000,0
1644798909.807,-20.508,-104.492,-28.809,-3.418,0.000,0
1644798909.811,-33.691,-275.391,-39.551,-14.160,0.000,0
1644798909.815,-38.574,-750.000,-42.480,-20.996,0.000,0
1644798909.818,-30.273,-291.504,-43.457,-31.250,0.000,0
1644798909.823,-20.020,264.160,-46.875,-27.832,0.000,0
1644798909.827,-33.203,197.754,-48.828,-12.207,0.000,0
1644798909.830,-49.316,-400.391,-48.340,-14.160,0.000,0
1644798909.834,-44.434,-750.977,-40.527,-21.484,0.000,0
1644798909.838,-24.902,-334.961,-38.574,-26.855,0.000,0
1644798909.842,-10.254,17.090,-37.598,-17.578,0.000,0
1644798909.846,-14.648,-507.324,-36.133,5.859,0.000,0
1644798909.850,-27.344,-891.113,-37.598,-5.371,0.000,0
1644798909.854,-42.969,-716.797,-41.504,-45.898,0.000,0
1644798909.858,-38.086,-592.285,-41.992,-39.551,0.000,0
1644798909.861,-36.133,-126.465,-36.621,-31.250,0.000,0
1644798909.865,-39.551,207.031,-36.621,-48.828,0.000,0
1644798909.870,-45.410,-11.230,-41.016,-33.691,0.000,0
1644798909.874,-48.340,-612.793,-42.969,-23.438,0.000,0
1644798909.877,-34.180,-593.262,-45.410,-39.062,0.000,0
1644798909.881,-17.090,85.449,-41.992,-24.902,0.000,0
