timestamps,TP9,AF7,AF8,TP10,Right AUX
1644802337.597,0.000,0.000,0.000,0.000,0.000
1644802337.601,0.000,0.000,-0.977,0.000,0.000
1644802337.605,-3.418,-1.465,3.906,-1.465,0.000
1644802337.609,6.836,2.441,-12.207,2.441,0.000
1644802337.613,-37.109,-13.184,43.457,-17.090,0.000
1644802337.616,-105.957,-37.109,60.547,-41.016,0.000
1644802337.620,-98.145,-33.203,-18.555,-58.594,0.000
1644802337.624,-77.148,-32.227,-7.812,-75.195,0.000
1644802337.628,-65.430,-31.738,-3.418,-61.523,0.000
1644802337.632,-69.824,-30.273,-18.555,-49.805,0.000
1644802337.636,-89.355,-36.133,-24.902,-50.781,0.000
1644802337.640,-85.938,-37.598,-24.902,-61.035,0.000
1644802337.640,-85.938,-37.598,-24.902,-61.035,0.000,0
1644802337.643,-63.965,-31.738,-23.438,-56.152,0.000,0
1644802337.647,-55.664,-28.809,-19.043,-48.828,0.000,0
1644802337.651,-72.266,-29.785,-21.973,-47.852,0.000,0
1644802337.655,-98.145,-38.086,-29.297,-47.852,0.000,0
1644802337.658,-90.332,-40.527,-24.414,-50.293,0.000,0
1644802337.662,-68.848,-32.715,-24.902,-55.176,0.000,0
1644802337.666,-61.035,-30.762,-26.367,-37.598,0.000,0
1644802337.670,-78.613,-28.320,-23.438,-29.297,0.000,0
1644802337.674,-97.168,-28.809,-23.438,-42.969,0.000,0
1644802337.678,-95.215,-28.320,-21.484,-55.176,0.000,0
1644802337.681,-79.102,-28.320,-27.344,-62.012,0.000,0
1644802337.685,-64.941,-29.785,-30.273,-48.340,0.000,0
1644802337.700,-67.383,-21.973,-31.738,-39.551,0.000,0
1644802337.705,-80.078,-22.949,-34.668,-41.992,0.000,0
1644802337.709,-91.797,-30.273,-27.832,-59.570,0.000,0
1644802337.713,-74.707,-30.273,-25.391,-62.012,0.000,0
1644802337.717,-50.781,-29.785,-21.973,-51.758,0.000,0
1644802337.722,-52.734,-28.809,-19.531,-49.316,0.000,0
1644802337.726,-67.871,-32.715,-25.879,-44.922,0.000,0
1644802337.730,-88.379,-37.109,-28.809,-46.875,0.000,0
1644802337.735,-70.312,-34.668,-32.227,-54.688,0.000,0
1644802337.739,-45.898,-31.250,-35.156,-52.734,0.000,0
1644802337.743,-61.035,-29.785,-33.203,-53.223,0.000,0
1644802337.748,-74.219,-29.785,-31.250,-62.012,0.000,0
1644802337.771,-88.867,-35.156,-27.832,-58.594,0.000,0
1644802337.775,-74.707,-34.180,-24.902,-51.270,0.000,0
1644802337.780,-47.363,-24.902,-24.902,-55.176,0.000,0
1644802337.785,-38.574,-21.973,-20.996,-45.410,0.000,0
1644802337.790,-57.617,-29.785,-23.926,-33.203,0.000,0
1644802337.795,-90.332,-37.598,-34.180,-46.875,0.000,0
1644802337.800,-78.613,-39.551,-32.227,-56.152,0.000,0
1644802337.804,-53.223,-28.320,-23.438,-55.176,0.000,0
1644802337.809,-57.617,-24.902,-20.020,-51.270,0.000,0
1644802337.814,-83.496,-36.621,-23.438,-56.152,0.000,0
1644802337.819,-99.609,-43.457,-33.691,-47.363,0.000,0
1644802337.824,-91.797,-40.527,-39.062,-49.316,0.000,0
1644802337.850,-75.684,-38.574,-39.062,-59.570,0.000,0
1644802337.855,-57.617,-30.273,-34.668,-49.316,0.000,0
1644802337.861,-60.547,-24.902,-32.715,-38.574,0.000,0
1644802337.866,-82.031,-28.809,-35.156,-34.668,0.000,0
1644802337.871,-78.125,-26.855,-32.227,-50.293,0.000,0
1644802337.876,-50.293,-23.926,-27.832,-53.711,0.000,0
1644802337.882,-45.410,-24.902,-22.461,-41.504,0.000,0
1644802337.887,-60.059,-30.762,-29.785,-32.227,0.000,0
1644802337.892,-74.707,-32.227,-38.574,-27.832,0.000,0
1644802337.897,-83.496,-28.320,-39.062,-51.758,0.000,0
1644802337.903,-69.336,-23.438,-37.109,-64.453,0.000,0
1644802337.908,-58.105,-24.902,-34.180,-55.664,0.000,0
1644802337.936,-70.312,-31.738,-36.133,-52.246,0.000,0
1644802337.942,-81.055,-40.527,-41.016,-45.410,0.000,0
1644802337.948,-74.707,-41.016,-36.621,-48.828,0.000,0
1644802337.953,-56.641,-32.715,-29.785,-62.012,0.000,0
1644802337.959,-47.852,-26.855,-29.297,-50.293,0.000,0
1644802337.964,-61.035,-24.414,-30.762,-31.250,0.000,0
1644802337.970,-75.684,-31.250,-35.156,-43.945,0.000,0
1644802337.976,-78.125,-34.668,-35.156,-63.477,0.000,0
1644802337.981,-61.523,-33.691,-37.109,-59.570,0.000,0
1644802337.987,-47.852,-27.832,-38.086,-51.270,0.000,0
1644802337.993,-60.059,-28.809,-33.691,-30.762,0.000,0
1644802337.998,-80.566,-39.062,-39.062,-34.668,0.000,0
1644802338.018,-90.332,-41.992,-47.852,-53.223,0.000,0
1644802338.024,-69.824,-29.785,-43.457,-48.828,0.000,0
1644802338.030,-50.293,-27.832,-37.598,-49.316,0.000,0
1644802338.036,-52.246,-31.250,-37.598,-41.016,0.000,0
1644802338.042,-76.172,-30.273,-35.645,-38.086,0.000,0
1644802338.047,-95.703,-40.039,-42.969,-58.105,0.000,0
1644802338.053,-74.219,-43.457,-45.410,-63.965,0.000,0
1644802338.059,-57.129,-35.156,-37.598,-58.105,0.000,0
1644802338.065,-65.430,-39.551,-38.086,-50.293,0.000,0
1644802338.071,-65.430,-45.410,-41.016,-25.879,0.000,0
1644802338.077,-75.195,-42.969,-38.574,-35.645,0.000,0
1644802338.083,-76.172,-38.086,-39.551,-61.035,0.000,0
1644802338.093,-56.152,-30.762,-38.574,-50.293,0.000,0
1644802338.099,-59.570,-31.738,-38.574,-43.457,0.000,0
1644802338.104,-72.266,-36.621,-43.457,-36.621,0.000,0
1644802338.110,-83.496,-39.062,-44.434,-28.809,0.000,0
1644802338.116,-69.824,-36.133,-33.203,-33.203,0.000,0
1644802338.122,-40.039,-29.297,-27.344,-46.387,0.000,0
1644802338.128,-33.691,-26.367,-30.273,-48.340,0.000,0
1644802338.134,-54.199,-26.367,-30.273,-46.387,0.000,0
1644802338.140,-83.984,-35.156,-33.203,-57.617,0.000,0
1644802338.146,-81.055,-41.504,-31.250,-49.316,0.000,0
1644802338.152,-55.664,-34.180,-28.320,-50.781,0.000,0
1644802338.158,-47.852,-27.832,-36.133,-43.945,0.000,0
1644802338.165,-75.684,-34.180,-41.504,-32.227,0.000,0
1644802338.171,-103.027,-41.016,-41.016,-41.992,0.000,0
1644802338.177,-93.750,-42.480,-40.039,-58.594,0.000,0
1644802338.183,-63.477,-39.551,-38.086,-55.664,0.000,0
1644802338.189,-40.039,-36.133,-37.109,-23.438,0.000,0
1644802338.195,-52.734,-33.691,-33.691,-29.785,0.000,0
1644802338.201,-85.449,-36.133,-32.227,-54.199,0.000,0
1644802338.207,-90.332,-39.551,-28.320,-57.617,0.000,0
1644802338.213,-65.430,-31.738,-21.484,-58.594,0.000,0
1644802338.219,-39.062,-30.762,-20.508,-50.781,0.000,0
1644802338.225,-36.133,-32.227,-24.414,-38.086,0.000,0
1644802338.231,-67.871,-32.227,-28.320,-26.367,0.000,0
1644802338.231,-88.379,-40.039,-30.762,-33.203,0.000,0
1644802338.237,-73.242,-37.598,-27.344,-52.734,0.000,0
1644802338.243,-61.035,-31.250,-24.902,-52.246,0.000,0
1644802338.248,-58.594,-34.180,-33.691,-46.387,0.000,0
1644802338.254,-70.312,-38.086,-33.203,-36.621,0.000,0
1644802338.260,-87.891,-44.922,-33.691,-41.992,0.000,0
1644802338.266,-74.219,-41.992,-43.945,-59.082,0.000,0
1644802338.272,-51.758,-30.762,-39.551,-52.734,0.000,0
1644802338.278,-62.012,-26.367,-40.527,-47.852,0.000,0
1644802338.284,-81.543,-29.297,-49.316,-44.922,0.000,0
1644802338.289,-88.867,-39.062,-54.688,-52.246,0.000,0
1644802338.295,-70.801,-38.574,-51.758,-66.895,0.000,0
1644802338.290,-55.176,-30.273,-37.109,-73.730,0.000,0
1644802338.295,-60.547,-34.668,-36.621,-59.570,0.000,0
1644802338.301,-72.754,-29.785,-40.527,-39.062,0.000,0
1644802338.307,-88.867,-29.297,-37.598,-35.156,0.000,0
1644802338.313,-74.219,-35.156,-39.551,-42.969,0.000,0
1644802338.319,-53.223,-34.180,-36.133,-44.434,0.000,0
1644802338.324,-53.711,-34.180,-32.227,-40.527,0.000,0
1644802338.330,-62.988,-37.598,-35.156,-43.945,0.000,0
1644802338.336,-86.914,-41.504,-35.645,-52.734,0.000,0
1644802338.342,-87.402,-40.527,-32.715,-59.570,0.000,0
1644802338.347,-66.895,-31.738,-33.203,-59.082,0.000,0
1644802338.353,-51.758,-29.297,-30.273,-58.105,0.000,0
1644802338.348,-62.988,-38.574,-30.762,-48.828,0.000,0
1644802338.354,-97.656,-46.387,-36.621,-44.434,0.000,0
1644802338.359,-94.727,-41.992,-37.598,-46.875,0.000,0
1644802338.365,-73.730,-33.691,-31.738,-41.504,0.000,0
1644802338.371,-66.406,-35.156,-25.879,-36.133,0.000,0
1644802338.376,-64.453,-36.621,-24.414,-41.992,0.000,0
1644802338.382,-82.031,-40.527,-29.785,-39.551,0.000,0
1644802338.388,-88.867,-41.504,-35.645,-40.039,0.000,0
1644802338.393,-72.266,-29.785,-29.297,-56.152,0.000,0
1644802338.399,-61.523,-23.438,-24.414,-55.176,0.000,0
1644802338.405,-67.871,-30.762,-28.320,-45.898,0.000,0
1644802338.410,-95.215,-36.621,-40.039,-51.758,0.000,0
1644802338.401,-98.145,-38.574,-45.898,-61.523,0.000,0
1644802338.407,-63.965,-37.109,-35.156,-48.828,0.000,0
1644802338.412,-55.664,-31.250,-35.156,-54.688,0.000,0
1644802338.418,-69.824,-28.320,-45.410,-67.871,0.000,0
1644802338.423,-82.031,-29.785,-51.270,-56.641,0.000,0
1644802338.429,-98.145,-35.156,-53.711,-62.012,0.000,0
1644802338.434,-77.637,-30.762,-44.922,-73.730,0.000,0
1644802338.440,-44.922,-22.461,-38.086,-61.523,0.000,0
1644802338.446,-47.852,-23.438,-37.109,-46.875,0.000,0
1644802338.451,-70.801,-26.367,-30.762,-45.898,0.000,1
1644802338.457,-83.984,-32.227,-32.227,-49.316,0.000,0
1644802338.462,-68.359,-32.227,-33.691,-53.711,0.000,0
1644802338.454,-56.641,-25.391,-34.180,-48.340,0.000,0
1644802338.460,-59.570,-34.180,-39.551,-21.484,0.000,0
1644802338.465,-71.777,-42.969,-37.109,-13.672,0.000,0
1644802338.471,-96.191,-37.109,-36.133,-40.039,0.000,0
1644802338.476,-91.309,-38.574,-31.738,-55.664,0.000,0
1644802338.482,-61.523,-37.598,-26.367,-44.922,0.000,0
1644802338.487,-51.758,-30.762,-33.691,-42.480,0.000,0
1644802338.493,-64.453,-31.250,-34.180,-38.574,0.000,0
1644802338.498,-82.520,-33.203,-33.203,-35.156,0.000,0
1644802338.504,-73.730,-32.227,-34.180,-59.570,0.000,0
1644802338.509,-49.316,-30.273,-31.738,-63.477,0.000,0
1644802338.515,-48.340,-28.320,-29.297,-37.598,0.000,0
1644802338.503,-57.129,-26.367,-30.273,-28.809,0.000,0
1644802338.508,-74.219,-27.832,-36.133,-33.691,0.000,0
1644802338.514,-74.219,-28.809,-41.016,-43.457,0.000,0
1644802338.519,-54.199,-26.855,-37.598,-48.340,0.000,0
1644802338.524,-48.828,-23.438,-38.086,-40.039,0.000,0
1644802338.530,-55.176,-24.414,-41.992,-38.086,0.000,0
1644802338.535,-72.754,-34.668,-39.551,-38.574,0.000,0
1644802338.541,-80.078,-37.109,-34.180,-43.457,0.000,0
1644802338.546,-64.941,-29.785,-30.273,-49.805,0.000,0
1644802338.551,-45.898,-35.156,-27.832,-25.879,0.000,0
1644802338.557,-50.293,-32.715,-27.344,-20.996,0.000,0
1644802338.562,-71.777,-28.809,-35.156,-43.457,0.000,0
1644802338.552,-75.195,-31.250,-34.180,-51.270,0.000,0
1644802338.558,-53.711,-28.809,-31.250,-50.781,0.000,0
1644802338.563,-47.363,-27.344,-32.715,-42.480,0.000,0
1644802338.568,-63.477,-23.926,-34.180,-32.227,0.000,0
1644802338.574,-74.219,-26.855,-36.133,-34.668,0.000,0
1644802338.579,-77.148,-37.598,-36.133,-51.270,0.000,0
1644802338.584,-61.523,-39.062,-36.621,-62.500,0.000,0
1644802338.590,-45.898,-29.297,-32.715,-49.805,0.000,0
1644802338.595,-61.035,-22.949,-27.344,-41.016,0.000,0
1644802338.600,-78.613,-31.250,-33.691,-46.875,0.000,0
1644802338.605,-77.148,-45.410,-39.062,-48.828,0.000,0
1644802338.611,-57.129,-45.898,-40.039,-44.434,0.000,0
1644802338.598,-40.039,-34.180,-38.086,-31.738,0.000,0
1644802338.603,-42.480,-33.203,-38.574,-29.785,0.000,0
1644802338.608,-57.129,-39.551,-41.016,-35.645,0.000,0
1644802338.614,-76.660,-34.668,-42.969,-52.734,0.000,0
1644802338.619,-59.570,-35.645,-40.527,-43.945,0.000,0
1644802338.624,-41.016,-32.227,-32.715,-36.133,0.000,0
1644802338.629,-54.688,-26.367,-37.109,-44.922,0.000,0
1644802338.634,-72.754,-34.668,-51.270,-36.133,0.000,0
1644802338.640,-85.449,-41.992,-49.316,-40.039,0.000,0
1644802338.645,-77.148,-37.598,-38.574,-60.059,0.000,0
1644802338.650,-57.617,-30.762,-34.668,-60.547,0.000,0
1644802338.655,-56.152,-27.832,-38.086,-51.270,0.000,0
1644802338.640,-62.500,-28.809,-45.898,-40.039,0.000,0
1644802338.645,-78.125,-33.203,-44.922,-40.527,0.000,0
1644802338.650,-77.148,-32.715,-36.133,-52.246,0.000,0
1644802338.656,-48.828,-31.738,-32.227,-50.781,0.000,0
1644802338.661,-50.781,-29.297,-32.227,-31.250,0.000,0
1644802338.666,-57.129,-27.832,-30.273,-22.949,0.000,0
1644802338.671,-70.801,-30.762,-30.762,-38.574,0.000,0
1644802338.676,-83.984,-27.344,-30.273,-51.270,0.000,0
1644802338.681,-64.941,-22.461,-26.367,-53.223,0.000,0
1644802338.686,-54.199,-27.344,-30.762,-52.734,0.000,0
1644802338.691,-60.547,-33.691,-30.762,-43.457,0.000,0
1644802338.696,-69.336,-31.738,-23.438,-39.062,0.000,0
1644802338.684,-68.359,-26.367,-27.832,-47.363,0.000,0
1644802338.689,-58.594,-28.320,-28.320,-51.758,0.000,0
1644802338.694,-55.664,-32.715,-23.438,-45.898,0.000,0
1644802338.699,-58.105,-36.621,-27.832,-30.762,0.000,0
1644802338.704,-74.707,-39.551,-33.203,-30.762,0.000,0
1644802338.709,-83.984,-28.320,-37.598,-58.594,0.000,0
1644802338.714,-59.082,-19.531,-36.133,-61.523,0.000,0
1644802338.719,-40.039,-22.949,-23.438,-34.668,0.000,0
1644802338.724,-61.523,-24.414,-18.066,-27.344,0.000,0
1644802338.729,-90.332,-24.414,-20.508,-45.410,0.000,0
1644802338.734,-83.496,-31.738,-22.461,-48.340,0.000,0
1644802338.739,-50.781,-34.668,-16.602,-32.715,0.000,0
1644802338.724,-37.598,-20.020,-11.719,-33.691,0.000,0
1644802338.729,-51.758,-18.066,-22.949,-54.199,0.000,0
1644802338.734,-67.383,-30.273,-29.297,-43.457,0.000,0
1644802338.739,-78.125,-35.156,-24.414,-30.762,0.000,0
1644802338.744,-59.082,-29.297,-21.973,-41.992,0.000,0
1644802338.749,-45.410,-35.156,-21.973,-34.180,0.000,0
1644802338.754,-49.805,-38.574,-19.531,-23.926,0.000,0
1644802338.759,-66.406,-27.344,-20.508,-36.621,0.000,0
1644802338.764,-88.379,-18.066,-18.066,-52.734,0.000,0
1644802338.769,-66.895,-14.160,-17.578,-47.852,0.000,0
1644802338.774,-41.504,-11.230,-20.996,-44.922,0.000,0
1644802338.779,-50.293,-13.184,-21.973,-47.852,0.000,0
1644802338.765,-76.172,-18.555,-25.391,-41.992,0.000,0
1644802338.770,-86.426,-27.344,-30.273,-47.363,0.000,0
1644802338.775,-69.824,-32.715,-21.973,-46.875,0.000,0
1644802338.779,-47.363,-29.785,-12.207,-39.062,0.000,0
1644802338.784,-46.387,-32.715,-13.184,-42.969,0.000,0
1644802338.789,-68.848,-33.203,-16.113,-49.316,0.000,0
1644802338.794,-83.984,-31.738,-24.902,-43.945,0.000,0
1644802338.799,-75.684,-27.344,-21.973,-43.945,0.000,0
1644802338.804,-63.965,-16.602,-14.648,-48.340,0.000,0
1644802338.809,-63.965,-11.719,-12.207,-36.133,0.000,0
1644802338.813,-75.195,-22.949,-12.695,-31.738,0.000,0
1644802338.818,-104.004,-31.250,-21.973,-49.316,0.000,0
1644802338.803,-90.820,-24.414,-24.414,-66.895,0.000,0
1644802338.808,-47.852,-25.879,-17.578,-46.387,0.000,0
1644802338.813,-48.340,-30.762,-20.996,-14.160,0.000,0
1644802338.817,-85.449,-24.414,-29.297,-24.414,0.000,0
1644802338.822,-95.215,-24.414,-29.785,-53.223,0.000,0
1644802338.827,-76.172,-25.879,-23.438,-55.664,0.000,0
1644802338.832,-51.758,-26.367,-24.902,-49.316,0.000,0
1644802338.836,-41.016,-29.297,-23.926,-41.016,0.000,0
1644802338.841,-62.500,-22.461,-18.066,-37.598,0.000,0
1644802338.846,-78.125,-24.414,-23.926,-41.016,0.000,0
1644802338.851,-75.195,-26.855,-20.996,-51.758,0.000,0
1644802338.856,-53.711,-19.043,-14.648,-43.945,0.000,0
1644802338.839,-40.039,-21.484,-18.066,-38.086,0.000,0
1644802338.844,-66.895,-26.367,-18.555,-30.273,0.000,0
1644802338.848,-95.703,-32.227,-17.578,-35.156,0.000,0
1644802338.853,-96.191,-34.668,-26.367,-55.176,0.000,0
1644802338.858,-58.105,-25.391,-24.414,-44.434,0.000,0
1644802338.862,-39.551,-27.344,-15.625,-37.598,0.000,0
1644802338.867,-53.223,-27.344,-25.879,-39.551,0.000,0
1644802338.872,-76.172,-27.344,-32.227,-41.504,0.000,0
1644802338.877,-81.055,-33.203,-21.973,-39.551,0.000,0
1644802338.881,-64.453,-34.180,-20.020,-29.785,0.000,0
1644802338.886,-51.758,-27.832,-23.926,-24.902,0.000,0
1644802338.891,-50.293,-22.949,-24.414,-34.180,0.000,0
1644802338.874,-77.637,-31.250,-27.832,-33.203,0.000,0
1644802338.879,-94.238,-38.086,-25.879,-31.250,0.000,0
1644802338.883,-78.613,-29.785,-28.320,-50.781,0.000,0
1644802338.888,-58.594,-23.926,-22.461,-44.922,0.000,0
1644802338.893,-63.477,-29.785,-17.090,-35.156,0.000,0
1644802338.897,-84.961,-33.691,-19.531,-35.156,0.000,0
1644802338.902,-87.402,-23.926,-17.578,-41.016,0.000,0
1644802338.907,-69.824,-16.113,-14.160,-51.758,0.000,0
1644802338.911,-58.105,-24.902,-15.137,-41.016,0.000,0
1644802338.916,-50.293,-30.762,-11.719,-30.762,0.000,0
1644802338.920,-68.848,-25.879,-10.254,-28.320,0.000,0
1644802338.925,-95.215,-24.414,-22.949,-30.762,0.000,0
1644802338.909,-72.266,-27.832,-17.090,-34.668,0.000,0
1644802338.913,-42.969,-20.020,-10.742,-28.320,0.000,0
1644802338.918,-54.199,-5.371,-13.184,-23.926,0.000,0
1644802338.922,-80.566,-15.625,-9.277,-19.043,0.000,0
1644802338.927,-93.262,-32.227,-15.625,-19.043,0.000,0
1644802338.931,-78.613,-27.344,-30.762,-45.898,0.000,0
1644802338.936,-66.895,-20.020,-23.438,-55.664,0.000,0
1644802338.941,-52.734,-27.832,-12.695,-34.180,0.000,0
1644802338.945,-62.500,-31.250,-11.230,-37.598,0.000,0
1644802338.950,-89.355,-28.809,-13.672,-56.641,0.000,0
1644802338.954,-86.426,-25.879,-16.602,-53.223,0.000,0
1644802338.959,-60.059,-24.902,-17.578,-41.504,0.000,0
1644802338.941,-57.617,-26.367,-20.996,-38.574,0.000,0
1644802338.946,-78.613,-22.461,-27.344,-32.227,0.000,0
1644802338.950,-95.215,-23.438,-34.180,-32.715,0.000,0
1644802338.955,-88.867,-30.762,-28.809,-47.852,0.000,0
1644802338.959,-59.570,-33.203,-16.602,-54.199,0.000,0
1644802338.964,-53.711,-26.855,-14.648,-46.387,0.000,0
1644802338.968,-67.383,-21.973,-12.207,-36.621,0.000,0
1644802338.973,-80.078,-33.691,-13.184,-38.086,0.000,0
1644802338.977,-97.656,-43.457,-21.973,-55.664,0.000,0
1644802338.982,-75.195,-28.320,-20.996,-69.336,0.000,0
1644802338.986,-60.547,-22.949,-17.578,-49.805,0.000,0
1644802338.991,-66.895,-33.203,-20.996,-22.461,0.000,0
1644802338.976,-77.637,-31.250,-23.926,-14.160,0.000,0
1644802338.981,-91.797,-25.879,-19.043,-24.902,0.000,0
1644802338.985,-75.195,-30.273,-12.207,-31.738,0.000,0
1644802338.990,-51.758,-30.273,-14.648,-25.391,0.000,0
1644802338.994,-59.082,-27.344,-15.625,-31.250,0.000,0
1644802338.998,-71.289,-28.809,-20.020,-45.410,0.000,0
1644802339.003,-81.543,-33.203,-27.832,-52.734,0.000,0
1644802339.007,-82.520,-31.738,-28.320,-54.199,0.000,0
1644802339.012,-64.941,-22.949,-23.438,-34.668,0.000,0
1644802339.016,-68.848,-15.625,-19.043,-26.367,0.000,0
1644802339.020,-75.195,-22.949,-20.996,-22.461,0.000,0
1644802339.025,-81.543,-23.926,-25.391,-20.996,0.000,0
1644802339.009,-66.406,-13.672,-21.973,-34.668,0.000,0
1644802339.014,-53.711,-10.254,-20.020,-41.992,0.000,0
1644802339.018,-52.246,-19.043,-22.949,-22.461,0.000,0
1644802339.022,-53.711,-21.484,-29.297,-9.766,0.000,0
1644802339.027,-78.125,-22.461,-28.809,-21.484,0.000,0
1644802339.031,-71.777,-26.367,-20.020,-37.109,0.000,0
1644802339.035,-44.922,-21.973,-20.508,-24.902,0.000,0
1644802339.040,-44.922,-17.578,-20.996,-4.395,0.000,0
1644802339.044,-63.477,-15.625,-25.879,-13.184,0.000,0
1644802339.049,-79.590,-16.602,-28.809,-26.855,0.000,0
1644802339.053,-68.359,-23.926,-21.973,-24.414,0.000,0
1644802339.057,-42.969,-22.949,-21.973,-22.949,0.000,0
1644802339.041,-45.898,-17.578,-21.484,-28.809,0.000,0
1644802339.045,-63.477,-20.996,-26.367,-30.273,0.000,0
1644802339.049,-78.613,-22.949,-33.203,-34.668,0.000,0
1644802339.054,-79.590,-26.855,-29.297,-52.246,0.000,0
1644802339.058,-65.918,-27.344,-27.344,-64.453,0.000,0
1644802339.062,-56.641,-23.438,-35.156,-45.410,0.000,0
1644802339.067,-66.406,-23.438,-35.645,-31.738,0.000,0
1644802339.071,-79.102,-22.949,-31.738,-31.250,0.000,0
1644802339.075,-75.684,-24.414,-33.203,-48.340,0.000,0
1644802339.080,-70.801,-25.879,-32.227,-53.711,0.000,0
1644802339.084,-64.941,-30.762,-31.250,-37.109,0.000,0
1644802339.088,-73.242,-30.762,-30.273,-32.715,0.000,0
1644802339.074,-80.566,-26.855,-30.273,-36.133,0.000,0
1644802339.079,-74.219,-30.273,-34.668,-39.062,0.000,0
1644802339.083,-67.383,-29.297,-38.086,-29.297,0.000,0
1644802339.087,-58.105,-16.602,-33.691,-26.855,0.000,0
1644802339.091,-59.082,-8.301,-31.250,-41.016,0.000,0
1644802339.096,-68.848,-19.531,-35.156,-32.715,0.000,0
1644802339.100,-74.219,-27.832,-31.250,-30.762,0.000,0
1644802339.104,-63.477,-17.090,-33.203,-53.223,0.000,0
1644802339.108,-55.664,-20.996,-39.062,-64.453,0.000,0
1644802339.113,-63.477,-32.227,-38.086,-51.758,0.000,0
1644802339.117,-71.289,-34.668,-39.551,-37.598,0.000,0
1644802339.121,-83.984,-29.297,-39.551,-44.922,0.000,0
1644802339.106,-78.613,-30.762,-33.691,-54.688,0.000,0
1644802339.111,-44.434,-33.691,-35.645,-46.875,0.000,0
1644802339.115,-50.781,-29.785,-37.109,-44.434,0.000,0
1644802339.119,-83.496,-27.832,-39.062,-51.270,0.000,0
1644802339.123,-77.637,-26.855,-44.922,-52.246,0.000,0
1644802339.127,-60.547,-29.297,-42.969,-43.457,0.000,0
1644802339.132,-49.805,-26.855,-40.039,-36.133,0.000,0
1644802339.136,-48.340,-19.531,-34.180,-43.945,0.000,0
1644802339.140,-68.359,-25.391,-34.668,-34.668,0.000,0
1644802339.144,-78.125,-39.062,-38.574,-30.273,0.000,0
1644802339.148,-73.730,-35.156,-33.203,-44.434,0.000,0
1644802339.153,-62.012,-22.949,-29.297,-56.152,0.000,0
1644802339.140,-58.105,-28.809,-27.832,-43.945,0.000,0
1644802339.144,-72.754,-39.551,-29.785,-23.438,0.000,0
1644802339.148,-86.914,-34.668,-36.133,-30.273,0.000,0
1644802339.153,-78.125,-34.668,-39.062,-41.992,0.000,0
1644802339.157,-58.594,-37.598,-35.645,-46.875,0.000,0
1644802339.161,-59.082,-34.180,-37.109,-49.805,0.000,0
1644802339.165,-76.172,-30.273,-43.457,-55.664,0.000,0
1644802339.169,-94.727,-32.227,-45.898,-50.293,0.000,0
1644802339.173,-91.797,-35.156,-47.852,-52.246,0.000,0
1644802339.178,-68.359,-29.785,-36.621,-62.012,0.000,0
1644802339.182,-64.453,-26.367,-28.320,-61.035,0.000,0
1644802339.186,-80.566,-29.297,-37.109,-59.082,0.000,0
1644802339.173,-99.609,-29.297,-44.922,-55.176,0.000,0
1644802339.177,-98.633,-24.902,-42.969,-65.430,0.000,0
1644802339.181,-69.336,-19.531,-37.109,-47.363,0.000,0
1644802339.185,-45.410,-11.230,-33.203,-27.832,0.000,0
1644802339.189,-52.246,-20.508,-34.668,-28.809,0.000,0
1644802339.193,-75.195,-32.227,-42.480,-34.668,0.000,0
1644802339.197,-78.613,-30.273,-39.062,-50.293,0.000,0
1644802339.201,-59.570,-30.762,-29.785,-45.410,0.000,0
1644802339.205,-59.082,-33.691,-35.645,-46.875,0.000,0
1644802339.210,-72.266,-24.414,-35.645,-45.410,0.000,0
1644802339.214,-86.426,-20.508,-25.879,-41.016,0.000,0
1644802339.218,-82.520,-29.297,-26.855,-39.062,0.000,0
1644802339.207,-59.570,-27.832,-26.855,-43.945,0.000,0
1644802339.211,-64.941,-17.578,-16.602,-53.711,0.000,0
1644802339.215,-73.242,-19.531,-13.672,-39.551,0.000,1
1644802339.219,-83.008,-32.715,-25.391,-30.762,0.000,0
1644802339.223,-92.773,-33.203,-33.691,-39.062,0.000,0
1644802339.227,-83.984,-27.344,-35.156,-54.199,0.000,0
1644802339.231,-66.406,-23.926,-35.156,-50.293,0.000,0
1644802339.235,-70.801,-26.367,-37.598,-31.250,0.000,0
1644802339.239,-99.609,-39.551,-41.992,-37.109,0.000,0
1644802339.243,-108.887,-40.527,-44.922,-62.988,0.000,0
1644802339.247,-88.379,-37.109,-42.969,-69.824,0.000,0
1644802339.252,-75.684,-39.551,-40.039,-61.035,0.000,0
1644802339.240,-72.754,-25.879,-38.574,-49.805,0.000,0
1644802339.244,-86.426,-22.949,-35.645,-51.270,0.000,0
1644802339.248,-103.027,-29.297,-38.086,-70.801,0.000,0
1644802339.252,-77.637,-27.832,-35.645,-55.176,0.000,0
1644802339.256,-48.828,-22.949,-30.762,-50.293,0.000,0
1644802339.260,-55.664,-21.973,-33.691,-62.012,0.000,0
1644802339.264,-81.543,-28.320,-37.109,-50.293,0.000,0
1644802339.268,-89.844,-32.227,-43.457,-44.922,0.000,0
1644802339.272,-82.520,-20.020,-43.945,-55.176,0.000,0
1644802339.276,-70.801,-12.207,-42.969,-62.500,0.000,0
1644802339.280,-61.035,-22.949,-45.410,-43.457,0.000,0
1644802339.284,-78.613,-33.203,-42.969,-33.691,0.000,0
1644802339.271,-104.004,-36.621,-41.016,-50.781,0.000,0
1644802339.275,-98.633,-38.086,-36.621,-61.035,0.000,0
1644802339.279,-78.613,-37.109,-34.668,-45.898,0.000,0
1644802339.283,-71.289,-31.250,-35.645,-30.762,0.000,0
1644802339.287,-83.008,-25.391,-36.133,-31.738,0.000,0
1644802339.291,-95.703,-29.297,-39.551,-24.902,0.000,0
1644802339.295,-81.543,-29.785,-39.062,-29.297,0.000,0
1644802339.299,-56.641,-23.926,-38.574,-54.688,0.000,0
1644802339.303,-54.199,-20.508,-33.203,-45.898,0.000,0
1644802339.307,-66.895,-25.391,-29.785,-33.203,0.000,0
1644802339.311,-84.473,-40.527,-31.738,-24.414,0.000,0
1644802339.315,-83.008,-40.527,-32.715,-27.344,0.000,0
1644802339.304,-72.754,-20.996,-26.367,-51.758,0.000,0
1644802339.308,-55.664,-14.648,-26.855,-47.852,0.000,0
1644802339.312,-48.340,-25.391,-30.762,-29.297,0.000,0
1644802339.316,-78.613,-31.250,-33.203,-44.434,0.000,0
1644802339.319,-91.797,-27.832,-38.086,-66.895,0.000,0
1644802339.323,-64.453,-21.484,-32.715,-56.152,0.000,0
1644802339.327,-49.805,-17.090,-21.973,-51.758,0.000,0
1644802339.331,-57.617,-17.090,-27.832,-54.688,0.000,0
1644802339.335,-77.637,-17.578,-39.551,-50.781,0.000,0
1644802339.339,-79.102,-20.996,-42.480,-35.645,0.000,0
1644802339.343,-61.035,-20.020,-43.457,-46.387,0.000,0
1644802339.347,-45.410,-20.508,-37.109,-54.688,0.000,0
1644802339.335,-50.293,-25.879,-33.691,-35.645,0.000,0
1644802339.339,-76.172,-33.691,-40.527,-35.645,0.000,0
1644802339.343,-87.402,-34.668,-48.340,-49.805,0.000,0
1644802339.347,-68.848,-24.414,-46.387,-50.293,0.000,0
1644802339.351,-47.363,-21.484,-40.039,-36.133,0.000,0
1644802339.355,-53.711,-29.785,-40.039,-20.508,0.000,0
1644802339.358,-66.895,-34.668,-44.922,-24.902,0.000,0
1644802339.362,-75.195,-28.320,-42.969,-54.199,0.000,0
1644802339.366,-68.848,-24.414,-38.574,-62.012,0.000,0
1644802339.370,-44.922,-28.809,-38.086,-32.227,0.000,0
1644802339.374,-43.945,-25.391,-34.668,-19.043,0.000,0
1644802339.378,-69.824,-18.066,-33.691,-39.062,0.000,0
1644802339.365,-84.961,-24.414,-41.504,-50.293,0.000,0
1644802339.369,-58.594,-29.297,-37.109,-37.109,0.000,0
1644802339.373,-38.574,-28.809,-31.250,-31.250,0.000,0
1644802339.377,-56.152,-20.508,-33.203,-55.176,0.000,0
1644802339.381,-78.613,-22.461,-32.715,-44.434,0.000,0
1644802339.385,-88.867,-30.762,-35.156,-41.016,0.000,0
1644802339.388,-81.055,-31.250,-36.133,-64.941,0.000,0
1644802339.392,-67.383,-30.762,-35.156,-64.453,0.000,0
1644802339.396,-64.453,-32.715,-33.203,-56.641,0.000,0
1644802339.400,-67.871,-35.645,-31.250,-42.480,0.000,0
1644802339.404,-89.844,-39.062,-36.621,-38.086,0.000,0
1644802339.408,-83.496,-36.621,-41.992,-46.387,0.000,0
1644802339.397,-49.805,-31.738,-39.551,-38.574,0.000,0
1644802339.401,-42.969,-27.832,-32.715,-26.855,0.000,0
1644802339.405,-63.965,-23.438,-32.715,-24.902,0.000,0
1644802339.409,-84.473,-29.785,-41.992,-35.645,0.000,0
1644802339.412,-73.730,-34.180,-43.945,-44.922,0.000,0
1644802339.416,-41.504,-31.250,-41.504,-39.551,0.000,0
1644802339.420,-44.922,-26.367,-44.922,-58.594,0.000,0
1644802339.424,-66.406,-23.926,-46.387,-63.477,0.000,0
1644802339.428,-75.684,-31.250,-49.316,-28.809,0.000,0
1644802339.432,-68.848,-33.203,-48.828,-22.461,0.000,0
1644802339.435,-55.664,-21.484,-39.062,-41.992,0.000,0
1644802339.439,-51.758,-20.508,-35.645,-35.156,0.000,0
1644802339.429,-50.293,-25.391,-38.086,-24.902,0.000,0
1644802339.433,-63.965,-29.785,-44.922,-30.273,0.000,0
1644802339.436,-74.707,-31.250,-46.387,-45.898,0.000,0
1644802339.440,-58.105,-21.484,-38.086,-53.223,0.000,0
1644802339.444,-36.621,-17.578,-37.109,-57.129,0.000,0
1644802339.448,-49.316,-27.832,-40.527,-50.293,0.000,0
1644802339.452,-80.078,-31.738,-41.992,-39.062,0.000,0
1644802339.455,-96.680,-33.203,-41.016,-48.828,0.000,0
1644802339.459,-71.289,-32.227,-40.527,-54.199,0.000,0
1644802339.463,-47.852,-20.508,-33.691,-47.852,0.000,0
1644802339.467,-56.152,-20.020,-30.762,-44.922,0.000,0
1644802339.471,-65.918,-29.785,-43.457,-37.598,0.000,0
1644802339.461,-79.590,-32.227,-44.922,-41.992,0.000,0
1644802339.465,-79.590,-27.832,-37.109,-52.734,0.000,0
1644802339.469,-64.941,-25.391,-41.016,-41.016,0.000,0
1644802339.472,-62.012,-31.738,-40.527,-32.227,0.000,0
1644802339.476,-74.707,-34.668,-41.504,-24.902,0.000,0
1644802339.480,-83.008,-26.367,-45.898,-40.527,0.000,0
1644802339.484,-78.613,-24.414,-38.086,-66.406,0.000,0
1644802339.488,-59.082,-22.949,-33.203,-44.434,0.000,0
1644802339.491,-47.363,-20.020,-29.297,-17.090,0.000,0
1644802339.495,-71.289,-14.648,-29.785,-35.645,0.000,0
1644802339.499,-85.449,-20.996,-32.227,-45.898,0.000,0
1644802339.503,-79.102,-28.320,-28.320,-43.945,0.000,0
1644802339.496,-62.012,-18.066,-29.297,-53.223,0.000,0
1644802339.499,-49.805,-11.719,-29.297,-62.012,0.000,0
1644802339.503,-64.453,-17.578,-26.855,-58.594,0.000,0
1644802339.507,-92.773,-26.855,-27.832,-45.410,0.000,0
1644802339.511,-99.121,-31.250,-25.879,-43.945,0.000,0
1644802339.515,-68.848,-23.438,-20.020,-41.992,0.000,0
1644802339.518,-56.152,-23.438,-19.531,-41.016,0.000,0
1644802339.522,-67.383,-37.109,-16.113,-41.016,0.000,0
1644802339.526,-93.262,-37.598,-20.020,-38.574,0.000,0
1644802339.530,-90.820,-24.902,-28.809,-48.828,0.000,0
1644802339.533,-66.406,-26.367,-30.762,-55.176,0.000,0
1644802339.537,-52.734,-24.414,-30.762,-46.387,0.000,0
1644802339.529,-54.688,-20.020,-28.320,-46.875,0.000,0
1644802339.533,-83.496,-24.414,-27.344,-40.039,0.000,0
1644802339.537,-87.891,-26.855,-26.855,-41.992,0.000,0
1644802339.540,-62.500,-23.438,-21.973,-53.711,0.000,0
1644802339.544,-56.641,-18.066,-23.438,-43.457,0.000,0
1644802339.548,-63.477,-21.973,-30.273,-29.785,0.000,0
1644802339.552,-78.125,-26.855,-30.273,-23.438,0.000,0
1644802339.555,-81.055,-21.484,-30.762,-41.992,0.000,0
1644802339.559,-67.871,-20.508,-31.738,-57.129,0.000,0
1644802339.563,-56.152,-21.484,-26.367,-48.340,0.000,0
1644802339.567,-60.547,-23.926,-21.484,-39.062,0.000,0
1644802339.570,-80.566,-22.461,-24.902,-37.598,0.000,0
1644802339.565,-85.449,-19.043,-30.273,-49.805,0.000,0
1644802339.569,-76.172,-20.020,-30.273,-59.082,0.000,0
1644802339.572,-55.176,-29.785,-31.738,-38.086,0.000,0
1644802339.576,-45.898,-29.785,-32.227,-25.879,0.000,0
1644802339.580,-67.871,-25.879,-35.156,-38.086,0.000,0
1644802339.584,-88.867,-33.691,-36.621,-43.945,0.000,0
1644802339.587,-70.801,-32.227,-30.273,-69.336,0.000,0
1644802339.591,-50.781,-24.902,-27.344,-73.730,0.000,0
1644802339.595,-62.500,-26.855,-28.809,-51.758,0.000,0
1644802339.598,-73.730,-35.645,-36.133,-41.016,0.000,0
1644802339.602,-81.543,-34.668,-40.039,-41.992,0.000,0
1644802339.606,-62.012,-25.879,-35.645,-43.457,0.000,0
1644802339.599,-42.480,-20.020,-29.785,-33.203,0.000,0
1644802339.603,-51.758,-25.391,-27.344,-40.039,0.000,0
1644802339.607,-60.059,-32.227,-29.297,-45.410,0.000,0
1644802339.610,-83.008,-30.762,-26.855,-35.645,0.000,0
1644802339.614,-79.102,-32.715,-20.996,-46.387,0.000,0
1644802339.618,-57.617,-36.621,-23.926,-51.758,0.000,0
1644802339.622,-53.711,-30.273,-21.973,-39.551,0.000,0
1644802339.625,-62.988,-26.367,-18.555,-38.086,0.000,0
1644802339.629,-91.309,-33.691,-31.738,-57.129,0.000,0
1644802339.633,-79.590,-34.668,-31.250,-59.082,0.000,0
1644802339.636,-51.758,-23.926,-22.461,-48.340,0.000,0
1644802339.640,-60.059,-23.926,-26.367,-45.898,0.000,0
1644802339.635,-66.406,-28.809,-25.879,-56.152,0.000,0
1644802339.639,-67.871,-36.621,-26.367,-44.922,0.000,0
1644802339.643,-66.895,-30.762,-32.227,-37.109,0.000,0
1644802339.646,-52.734,-20.508,-31.738,-51.270,0.000,0
1644802339.650,-41.504,-25.879,-27.832,-48.828,0.000,0
1644802339.654,-58.594,-32.715,-30.762,-34.180,0.000,0
1644802339.657,-81.543,-32.715,-35.156,-25.879,0.000,0
1644802339.661,-70.801,-36.621,-35.645,-37.109,0.000,0
1644802339.665,-50.781,-35.156,-28.809,-34.668,0.000,0
1644802339.669,-49.805,-26.855,-19.043,-24.902,0.000,0
1644802339.672,-62.500,-24.414,-15.625,-28.320,0.000,0
1644802339.676,-86.426,-28.320,-21.484,-37.598,0.000,0
1644802339.673,-88.867,-40.039,-28.809,-46.875,0.000,0
1644802339.677,-57.617,-38.574,-25.391,-39.062,0.000,0
1644802339.680,-41.016,-24.902,-19.043,-34.668,0.000,0
1644802339.684,-54.688,-25.391,-20.996,-28.320,0.000,0
1644802339.688,-78.613,-29.297,-26.367,-21.484,0.000,0
1644802339.692,-87.402,-30.762,-28.320,-40.039,0.000,0
1644802339.695,-77.637,-27.344,-28.320,-53.711,0.000,0
1644802339.699,-61.523,-25.879,-24.902,-59.082,0.000,0
1644802339.703,-52.734,-36.621,-22.949,-43.457,0.000,0
1644802339.706,-73.730,-39.551,-22.949,-25.879,0.000,0
1644802339.710,-86.426,-28.320,-17.578,-24.414,0.000,0
1644802339.714,-65.918,-21.973,-21.484,-30.762,0.000,0
1644802339.710,-48.828,-18.066,-26.855,-22.461,0.000,0
1644802339.713,-50.293,-15.137,-27.344,-32.227,0.000,0
1644802339.717,-74.707,-20.996,-24.414,-45.898,0.000,0
1644802339.721,-91.797,-29.297,-26.367,-38.574,0.000,0
1644802339.724,-65.430,-27.832,-26.367,-52.734,0.000,0
1644802339.728,-36.621,-23.438,-16.602,-42.969,0.000,0
1644802339.732,-45.898,-23.926,-22.461,-32.227,0.000,0
1644802339.735,-54.688,-20.508,-27.344,-28.809,0.000,0
1644802339.739,-71.289,-26.367,-17.090,-35.645,0.000,0
1644802339.743,-65.430,-34.668,-15.625,-47.363,0.000,0
1644802339.746,-39.551,-27.344,-18.555,-41.016,0.000,0
1644802339.750,-34.668,-24.902,-19.043,-18.555,0.000,0
1644802339.748,-50.293,-26.367,-12.207,0.977,0.000,0
1644802339.751,-81.055,-31.738,-9.766,-20.020,0.000,0
1644802339.755,-73.730,-28.809,-16.113,-39.551,0.000,0
1644802339.759,-40.527,-17.578,-12.695,-25.879,0.000,0
1644802339.762,-37.598,-13.672,-5.859,-13.184,0.000,0
1644802339.766,-67.871,-20.020,-10.254,-18.066,0.000,0
1644802339.769,-93.750,-28.320,-15.625,-30.273,0.000,0
1644802339.773,-84.473,-31.250,-18.066,-37.109,0.000,0
1644802339.777,-61.523,-27.344,-13.672,-35.645,0.000,0
1644802339.780,-54.199,-19.043,-10.254,-45.898,0.000,0
1644802339.784,-57.129,-19.043,-16.602,-40.527,0.000,0
1644802339.788,-78.125,-26.367,-24.902,-29.297,0.000,0
1644802339.785,-77.637,-32.715,-21.484,-23.438,0.000,0
1644802339.789,-55.664,-26.367,-18.555,-18.066,0.000,0
1644802339.792,-53.223,-19.531,-21.484,-15.137,0.000,0
1644802339.796,-59.082,-19.043,-17.090,-16.113,0.000,0
1644802339.800,-67.383,-21.484,-11.230,-26.367,0.000,0
1644802339.803,-73.242,-23.926,-14.160,-38.574,0.000,0
1644802339.807,-54.199,-18.066,-20.996,-37.109,0.000,0
1644802339.810,-41.016,-12.695,-24.902,-29.785,0.000,0
1644802339.814,-57.129,-10.254,-26.855,-35.156,0.000,0
1644802339.818,-77.148,-16.113,-31.250,-19.531,0.000,0
1644802339.821,-74.707,-22.461,-35.156,-14.160,0.000,0
1644802339.825,-52.246,-19.531,-27.832,-33.691,0.000,0
1644802339.823,-46.387,-11.230,-19.043,-41.504,0.000,0
1644802339.827,-53.711,-10.742,-19.531,-35.156,0.000,0
1644802339.831,-62.500,-20.508,-24.902,-28.809,0.000,0
1644802339.834,-83.496,-22.949,-29.297,-29.297,0.000,0
1644802339.838,-80.078,-14.648,-26.855,-38.086,0.000,0
1644802339.842,-50.781,-10.742,-19.531,-31.250,0.000,0
1644802339.845,-48.340,-20.020,-15.625,-7.812,0.000,0
1644802339.849,-72.754,-28.320,-31.250,-9.277,0.000,0
1644802339.852,-88.379,-18.555,-38.086,-22.461,0.000,0
1644802339.856,-73.242,-11.719,-29.785,-24.414,0.000,0
1644802339.860,-57.617,-10.742,-29.297,-40.039,0.000,0
1644802339.863,-41.992,-11.230,-28.809,-51.270,0.000,0
1644802339.862,-60.547,-10.742,-32.227,-43.945,0.000,0
1644802339.866,-86.426,-16.113,-35.156,-47.363,0.000,0
1644802339.869,-65.918,-22.949,-33.691,-43.945,0.000,0
1644802339.873,-49.805,-19.043,-35.645,-44.434,0.000,0
1644802339.877,-56.641,-11.230,-27.832,-35.645,0.000,0
1644802339.880,-61.523,-16.602,-21.484,-20.996,0.000,0
1644802339.884,-72.266,-26.367,-26.855,-28.320,0.000,0
1644802339.887,-70.801,-26.855,-30.273,-38.086,0.000,0
1644802339.891,-62.988,-22.949,-27.832,-48.828,0.000,0
1644802339.895,-68.359,-25.879,-33.203,-55.664,0.000,0
1644802339.898,-77.148,-32.715,-35.645,-44.922,0.000,0
1644802339.902,-95.215,-24.414,-32.227,-41.016,0.000,0
1644802339.900,-88.867,-14.648,-32.715,-62.500,0.000,0
1644802339.904,-57.129,-21.973,-28.809,-58.105,0.000,0
1644802339.908,-52.246,-23.438,-27.344,-47.852,0.000,0
1644802339.911,-66.895,-20.996,-27.832,-44.922,0.000,0
1644802339.915,-86.914,-31.250,-35.645,-43.457,0.000,0
1644802339.919,-83.984,-35.645,-41.504,-41.016,0.000,0
1644802339.922,-54.199,-21.973,-33.203,-32.227,0.000,0
1644802339.926,-42.969,-13.672,-29.297,-30.273,0.000,0
1644802339.929,-55.176,-14.160,-28.809,-29.785,0.000,0
1644802339.933,-82.031,-27.832,-35.156,-44.434,0.000,0
1644802339.937,-91.309,-39.551,-40.527,-52.734,0.000,0
1644802339.940,-66.895,-28.320,-37.109,-45.898,0.000,0
1644802339.940,-55.664,-23.926,-37.598,-31.250,0.000,0
1644802339.944,-67.871,-26.855,-35.156,-26.855,0.000,0
1644802339.948,-78.613,-27.832,-33.203,-32.227,0.000,0
1644802339.951,-90.820,-30.273,-31.738,-49.316,0.000,0
1644802339.955,-74.219,-29.785,-28.809,-64.941,0.000,0
1644802339.959,-48.828,-28.809,-32.227,-49.805,0.000,0
1644802339.962,-62.500,-26.367,-30.273,-40.039,0.000,0
1644802339.966,-89.844,-24.902,-31.250,-47.363,0.000,0
1644802339.969,-92.285,-27.344,-32.227,-45.898,0.000,0
1644802339.973,-80.566,-25.879,-32.227,-49.316,0.000,0
1644802339.977,-62.500,-15.137,-34.180,-32.227,0.000,0
1644802339.980,-62.012,-14.648,-30.762,-26.855,0.000,0
1644802339.980,-81.055,-23.926,-30.762,-45.410,0.000,0
1644802339.984,-98.145,-30.762,-34.180,-48.340,0.000,0
1644802339.987,-89.844,-30.273,-34.668,-49.316,0.000,0
1644802339.991,-65.918,-23.926,-28.809,-44.434,0.000,0
1644802339.994,-60.547,-25.391,-27.344,-27.344,0.000,0
1644802339.998,-66.406,-31.250,-30.273,-15.137,0.000,0
1644802340.002,-89.844,-34.180,-36.133,-32.227,0.000,0
1644802340.005,-92.285,-33.203,-39.551,-45.898,0.000,0
1644802340.009,-71.289,-27.832,-39.551,-51.270,0.000,0
1644802340.012,-77.148,-25.879,-32.227,-56.152,0.000,0
1644802340.016,-89.844,-24.414,-33.203,-46.387,0.000,0
1644802340.020,-104.980,-29.297,-40.039,-44.434,0.000,0
1644802340.020,-84.473,-32.715,-41.016,-46.875,0.000,0
1644802340.023,-53.711,-27.344,-41.016,-38.574,0.000,0
1644802340.027,-65.918,-17.578,-43.945,-48.828,0.000,0
1644802340.031,-79.590,-20.996,-45.898,-55.176,0.000,0
1644802340.034,-95.703,-33.691,-47.852,-64.453,0.000,0
1644802340.038,-95.215,-31.250,-45.898,-72.754,0.000,0
1644802340.041,-67.871,-30.273,-41.992,-54.688,0.000,0
1644802340.045,-57.129,-30.762,-44.922,-57.617,0.000,0
1644802340.049,-63.965,-32.227,-41.016,-62.012,0.000,0
1644802340.052,-91.309,-33.203,-36.133,-55.664,0.000,0
1644802340.056,-95.703,-31.738,-41.016,-69.336,0.000,0
1644802340.059,-70.801,-35.645,-40.039,-62.012,0.000,0
1644802340.060,-59.082,-34.180,-35.645,-46.387,0.000,0
1644802340.064,-74.707,-27.832,-34.180,-49.805,0.000,0
1644802340.068,-98.145,-29.297,-34.180,-44.922,0.000,0
1644802340.071,-97.656,-35.645,-28.320,-41.992,0.000,0
1644802340.075,-75.684,-38.574,-24.902,-48.828,0.000,0
1644802340.078,-60.547,-37.109,-33.691,-38.086,0.000,0
1644802340.082,-66.406,-33.691,-34.668,-31.738,0.000,0
1644802340.086,-77.637,-31.250,-37.598,-32.227,0.000,0
1644802340.089,-80.078,-30.273,-43.457,-40.039,0.000,0
1644802340.093,-71.777,-20.020,-31.738,-54.199,0.000,0
1644802340.096,-62.500,-21.484,-27.344,-33.691,0.000,1
1644802340.100,-68.848,-33.203,-39.551,-21.484,0.000,0
1644802340.101,-92.773,-31.250,-43.457,-29.785,0.000,0
1644802340.104,-97.168,-28.809,-36.621,-50.293,0.000,0
1644802340.108,-75.195,-29.297,-31.738,-52.246,0.000,0
1644802340.111,-58.594,-25.391,-27.344,-31.738,0.000,0
1644802340.115,-60.059,-22.949,-29.785,-28.320,0.000,0
1644802340.119,-82.031,-29.297,-34.668,-31.738,0.000,0
1644802340.122,-99.609,-40.039,-35.645,-35.156,0.000,0
1644802340.126,-86.914,-38.574,-40.039,-47.852,0.000,0
1644802340.129,-69.336,-27.832,-34.668,-44.922,0.000,0
1644802340.133,-64.453,-19.531,-25.879,-37.109,0.000,0
1644802340.137,-76.660,-21.484,-33.691,-33.691,0.000,0
1644802340.140,-85.938,-34.180,-42.969,-31.738,0.000,0
1644802340.142,-74.219,-27.344,-33.203,-29.785,0.000,0
1644802340.146,-50.293,-16.113,-21.973,-28.809,0.000,0
1644802340.149,-39.062,-28.320,-32.227,-22.461,0.000,0
1644802340.153,-56.152,-34.180,-37.598,-12.207,0.000,0
1644802340.157,-80.566,-32.227,-34.180,-37.109,0.000,0
1644802340.160,-83.984,-30.273,-40.039,-70.312,0.000,0
1644802340.164,-58.105,-31.250,-41.016,-43.945,0.000,0
1644802340.167,-50.781,-35.156,-39.551,-23.926,0.000,0
1644802340.171,-77.148,-31.250,-37.109,-41.992,0.000,0
1644802340.175,-100.098,-32.715,-35.156,-57.617,0.000,0
1644802340.178,-98.145,-36.621,-34.668,-49.805,0.000,0
1644802340.182,-73.242,-38.574,-39.062,-43.945,0.000,0
1644802340.183,-66.895,-33.691,-44.434,-60.059,0.000,0
1644802340.186,-76.660,-35.645,-43.945,-61.035,0.000,0
1644802340.190,-89.355,-38.086,-41.992,-61.523,0.000,0
1644802340.193,-95.215,-32.227,-42.969,-61.523,0.000,0
1644802340.197,-76.172,-29.785,-41.016,-54.688,0.000,0
1644802340.201,-65.430,-35.156,-37.109,-48.828,0.000,0
1644802340.204,-75.195,-42.480,-44.434,-35.645,0.000,0
1644802340.208,-102.539,-43.457,-49.316,-39.062,0.000,0
1644802340.211,-104.492,-38.086,-40.039,-55.664,0.000,0
1644802340.215,-73.730,-36.133,-37.109,-48.828,0.000,0
1644802340.219,-62.500,-37.109,-34.668,-39.062,0.000,0
1644802340.222,-71.289,-30.762,-32.227,-36.133,0.000,0
1644802340.224,-85.449,-28.320,-39.551,-41.016,0.000,0
1644802340.228,-89.355,-34.180,-45.410,-51.270,0.000,0
1644802340.231,-71.289,-34.668,-43.945,-44.922,0.000,0
1644802340.235,-65.430,-21.484,-39.551,-41.992,0.000,0
1644802340.238,-74.707,-19.531,-41.504,-49.316,0.000,0
1644802340.242,-87.891,-34.180,-48.340,-36.133,0.000,0
1644802340.245,-88.379,-38.574,-41.992,-41.016,0.000,0
1644802340.249,-73.242,-32.227,-32.715,-69.824,0.000,0
1644802340.253,-62.012,-34.668,-39.551,-59.570,0.000,0
1644802340.256,-67.871,-36.621,-46.387,-41.992,0.000,0
1644802340.260,-89.355,-35.156,-48.340,-47.363,0.000,0
1644802340.263,-97.168,-34.668,-47.363,-58.105,0.000,0
1644802340.267,-74.219,-34.180,-41.992,-58.105,0.000,0
1644802340.270,-61.523,-36.133,-35.645,-53.711,0.000,0
1644802340.274,-72.754,-34.180,-35.645,-46.875,0.000,0
1644802340.277,-88.867,-35.156,-42.480,-42.969,0.000,0
1644802340.281,-88.379,-41.992,-49.316,-47.852,0.000,0
1644802340.285,-67.383,-38.574,-50.293,-53.223,0.000,0
1644802340.288,-60.059,-34.180,-49.316,-45.410,0.000,0
1644802340.292,-66.406,-35.156,-46.875,-35.156,0.000,0
1644802340.295,-75.195,-37.109,-43.457,-36.621,0.000,0
1644802340.299,-80.078,-41.016,-44.434,-50.293,0.000,0
1644802340.302,-79.102,-37.598,-34.668,-53.223,0.000,0
1644802340.306,-65.430,-31.250,-28.320,-42.480,0.000,0
1644802340.308,-61.035,-32.715,-34.668,-47.363,0.000,0
1644802340.312,-83.984,-36.621,-40.039,-53.711,0.000,0
1644802340.315,-97.656,-38.086,-44.434,-51.758,0.000,0
1644802340.319,-93.262,-45.898,-45.898,-62.012,0.000,0
1644802340.323,-74.707,-46.387,-41.992,-56.641,0.000,0
1644802340.326,-59.570,-40.527,-44.922,-34.668,0.000,0
1644802340.330,-75.195,-41.504,-46.387,-30.762,0.000,0
1644802340.333,-107.422,-37.109,-41.992,-55.176,0.000,0
1644802340.337,-90.332,-39.551,-38.574,-67.383,0.000,0
1644802340.341,-62.988,-35.156,-38.574,-55.664,0.000,0
1644802340.344,-64.453,-24.902,-38.086,-44.922,0.000,0
1644802340.348,-60.547,-24.414,-37.598,-24.902,0.000,0
1644802340.350,-81.055,-32.227,-46.387,-20.508,0.000,0
1644802340.353,-88.379,-30.762,-48.828,-36.133,0.000,0
1644802340.357,-66.406,-29.785,-43.457,-54.688,0.000,0
1644802340.361,-52.734,-36.133,-37.598,-57.617,0.000,0
1644802340.364,-58.105,-41.016,-38.574,-38.574,0.000,0
1644802340.368,-86.426,-42.969,-41.504,-33.203,0.000,0
1644802340.371,-98.145,-44.922,-41.016,-44.434,0.000,0
1644802340.375,-81.055,-41.016,-42.480,-62.988,0.000,0
1644802340.379,-62.500,-40.039,-37.109,-50.781,0.000,0
1644802340.382,-80.566,-38.574,-28.320,-44.922,0.000,0
1644802340.386,-102.051,-33.691,-36.621,-55.176,0.000,0
1644802340.389,-90.332,-35.645,-40.039,-44.922,0.000,0
1644802340.392,-71.289,-36.621,-33.203,-46.387,0.000,0
1644802340.395,-58.594,-30.762,-27.344,-33.691,0.000,0
1644802340.399,-58.594,-28.809,-32.227,-31.250,0.000,0
1644802340.402,-72.754,-32.715,-39.551,-47.852,0.000,0
1644802340.406,-81.055,-29.785,-32.715,-44.434,0.000,0
1644802340.410,-68.848,-29.297,-29.297,-61.035,0.000,0
1644802340.413,-55.176,-23.438,-20.508,-50.781,0.000,0
1644802340.417,-51.270,-25.879,-20.508,-32.715,0.000,0
1644802340.420,-67.383,-35.156,-32.715,-35.645,0.000,0
1644802340.424,-88.379,-32.715,-35.156,-49.805,0.000,0
1644802340.428,-80.078,-32.227,-33.691,-48.828,0.000,0
1644802340.431,-65.430,-34.180,-29.297,-31.250,0.000,0
1644802340.434,-58.594,-31.738,-29.297,-37.598,0.000,0
1644802340.438,-74.707,-29.297,-31.738,-47.363,0.000,0
1644802340.441,-101.562,-32.715,-36.133,-56.152,0.000,0
1644802340.445,-90.332,-34.668,-35.156,-64.941,0.000,0
1644802340.449,-60.547,-25.879,-28.809,-41.504,0.000,0
1644802340.452,-50.293,-23.926,-29.297,-34.668,0.000,0
1644802340.456,-66.895,-26.855,-32.227,-39.551,0.000,0
1644802340.459,-81.543,-33.691,-38.086,-30.762,0.000,0
1644802340.463,-75.684,-31.738,-33.691,-46.875,0.000,0
1644802340.466,-66.895,-23.926,-23.926,-47.852,0.000,0
1644802340.470,-51.270,-19.043,-22.949,-32.227,0.000,0
1644802340.474,-60.547,-23.926,-21.484,-25.879,0.000,0
1644802340.476,-90.332,-28.320,-20.996,-32.227,0.000,0
1644802340.480,-86.426,-23.926,-25.879,-44.922,0.000,0
1644802340.483,-69.824,-24.902,-21.973,-41.016,0.000,0
1644802340.487,-58.105,-24.414,-20.020,-42.969,0.000,0
1644802340.491,-73.242,-21.484,-24.902,-48.828,0.000,0
1644802340.494,-94.238,-26.367,-28.809,-45.410,0.000,0
1644802340.498,-89.844,-23.926,-25.879,-58.105,0.000,0
1644802340.501,-77.148,-18.066,-23.438,-61.523,0.000,0
1644802340.505,-70.312,-20.020,-23.926,-46.875,0.000,0
1644802340.508,-67.383,-23.438,-20.020,-41.992,0.000,0
1644802340.512,-77.148,-32.715,-24.902,-35.156,0.000,0
1644802340.516,-82.031,-36.621,-23.438,-42.969,0.000,0
1644802340.519,-71.289,-26.855,-13.672,-51.270,0.000,0
1644802340.523,-68.359,-24.414,-19.043,-40.039,0.000,0
1644802340.526,-78.125,-22.949,-24.902,-43.945,0.000,0
1644802340.530,-89.844,-22.949,-28.320,-37.109,0.000,0
1644802340.533,-93.262,-24.414,-24.902,-39.062,0.000,0
1644802340.537,-81.543,-27.344,-20.508,-52.246,0.000,0
1644802340.540,-57.129,-26.855,-23.438,-33.203,0.000,0
1644802340.544,-63.965,-22.461,-25.391,-25.391,0.000,0
1644802340.548,-86.914,-20.508,-22.461,-34.668,0.000,0
1644802340.551,-94.727,-28.320,-21.973,-38.086,0.000,0
1644802340.555,-77.148,-33.691,-24.902,-45.410,0.000,0
1644802340.558,-47.852,-19.043,-20.508,-34.668,0.000,0
1644802340.562,-47.363,-9.766,-21.484,-19.043,0.000,0
1644802340.565,-70.801,-21.484,-24.902,-27.832,0.000,0
1644802340.569,-87.891,-36.133,-33.203,-58.105,0.000,0
1644802340.572,-79.102,-37.109,-38.574,-60.059,0.000,0
1644802340.576,-60.059,-32.715,-30.762,-44.922,0.000,0
1644802340.580,-64.941,-30.762,-29.785,-33.203,0.000,0
1644802340.583,-81.543,-31.250,-38.086,-30.273,0.000,0
1644802340.587,-95.703,-34.668,-38.574,-48.828,0.000,0
1644802340.590,-89.844,-33.203,-35.645,-58.105,0.000,0
1644802340.594,-59.570,-34.668,-33.203,-40.527,0.000,0
1644802340.598,-55.176,-35.645,-30.273,-27.344,0.000,0
1644802340.601,-74.219,-27.832,-28.320,-20.508,0.000,0
1644802340.605,-85.938,-26.855,-33.203,-36.133,0.000,0
1644802340.608,-79.590,-22.461,-31.738,-52.734,0.000,0
1644802340.612,-58.105,-18.555,-22.949,-45.410,0.000,0
1644802340.615,-49.316,-17.090,-19.043,-45.898,0.000,0
1644802340.619,-64.941,-27.832,-26.855,-49.316,0.000,0
1644802340.622,-83.008,-37.109,-32.715,-46.387,0.000,0
1644802340.626,-76.660,-35.156,-21.973,-41.016,0.000,0
1644802340.630,-59.082,-34.668,-21.484,-50.781,0.000,0
1644802340.633,-58.594,-27.832,-30.762,-54.688,0.000,0
1644802340.637,-73.242,-30.762,-34.668,-30.762,0.000,0
1644802340.640,-98.633,-35.645,-35.645,-36.133,0.000,0
1644802340.644,-108.887,-32.715,-36.621,-63.965,0.000,0
1644802340.648,-85.938,-34.668,-34.180,-60.059,0.000,0
1644802340.652,-75.684,-32.715,-31.738,-67.871,0.000,0
1644802340.655,-87.402,-25.879,-32.715,-79.102,0.000,0
1644802340.659,-105.957,-32.227,-38.574,-65.430,0.000,0
1644802340.662,-101.562,-38.086,-37.598,-55.176,0.000,0
1644802340.666,-79.590,-32.227,-29.785,-46.875,0.000,0
1644802340.670,-72.754,-26.367,-21.973,-52.734,0.000,0
1644802340.673,-83.984,-26.855,-24.414,-51.758,0.000,0
1644802340.677,-87.891,-40.527,-34.668,-36.133,0.000,0
1644802340.680,-76.660,-44.434,-39.551,-46.387,0.000,0
1644802340.684,-61.523,-25.391,-32.227,-56.152,0.000,0
1644802340.687,-51.758,-21.484,-23.926,-55.664,0.000,0
1644802340.691,-71.289,-29.297,-28.809,-59.082,0.000,0
1644802340.695,-95.215,-31.738,-30.273,-38.574,0.000,0
1644802340.698,-90.820,-30.273,-20.996,-45.898,0.000,0
1644802340.702,-77.148,-32.227,-19.531,-64.941,0.000,0
1644802340.705,-61.035,-33.691,-24.414,-47.852,0.000,0
1644802340.709,-62.988,-33.691,-25.391,-36.133,0.000,0
1644802340.713,-87.402,-32.715,-25.391,-33.203,0.000,0
1644802340.716,-99.121,-35.645,-30.273,-29.785,0.000,0
1644802340.720,-89.355,-35.156,-29.785,-33.691,0.000,0
1644802340.723,-67.383,-21.484,-26.855,-46.387,0.000,0
1644802340.727,-63.965,-15.625,-29.785,-46.387,0.000,0
1644802340.730,-77.637,-27.832,-32.227,-49.316,0.000,0
1644802340.734,-85.449,-38.086,-32.715,-53.223,0.000,0
1644802340.738,-82.520,-35.645,-30.762,-61.523,0.000,0
1644802340.741,-67.871,-30.273,-25.391,-52.734,0.000,0
1644802340.745,-67.871,-32.227,-26.855,-34.668,0.000,0
1644802340.748,-80.078,-35.156,-30.273,-34.668,0.000,0
1644802340.752,-85.449,-31.738,-32.227,-42.480,0.000,0
1644802340.756,-76.172,-26.855,-29.785,-58.594,0.000,0
1644802340.759,-61.523,-28.320,-28.320,-55.176,0.000,0
1644802340.763,-59.570,-26.855,-31.738,-45.898,0.000,0
1644802340.766,-79.590,-19.043,-27.832,-40.527,0.000,0
1644802340.770,-92.285,-28.809,-30.273,-45.410,0.000,0
1644802340.774,-90.332,-34.180,-33.203,-59.082,0.000,0
1644802340.779,-80.566,-31.250,-31.250,-48.828,0.000,0
1644802340.782,-71.289,-29.297,-31.250,-44.434,0.000,0
1644802340.786,-70.312,-34.180,-28.809,-44.922,0.000,0
1644802340.790,-90.820,-38.086,-30.273,-37.598,0.000,0
1644802340.793,-101.562,-34.668,-36.133,-58.594,0.000,0
1644802340.797,-79.102,-31.250,-28.809,-58.105,0.000,0
1644802340.800,-66.406,-29.785,-27.832,-58.105,0.000,0
1644802340.804,-68.848,-39.551,-34.180,-50.293,0.000,0
1644802340.808,-86.426,-40.039,-32.227,-34.668,0.000,0
1644802340.811,-92.773,-26.367,-33.203,-44.922,0.000,0
1644802340.815,-69.336,-27.344,-31.250,-38.574,0.000,0
1644802340.818,-63.477,-36.133,-33.203,-29.297,0.000,0
1644802340.823,-69.824,-34.668,-32.715,-38.086,0.000,0
1644802340.826,-80.078,-36.133,-26.367,-40.039,0.000,0
1644802340.830,-89.355,-41.016,-34.180,-42.969,0.000,0
1644802340.833,-82.520,-36.133,-43.945,-52.246,0.000,0
1644802340.837,-67.383,-26.855,-43.945,-46.387,0.000,0
1644802340.840,-68.359,-29.785,-41.016,-38.086,0.000,0
1644802340.844,-86.426,-41.504,-35.645,-40.527,0.000,0
1644802340.848,-94.727,-43.457,-37.598,-51.758,0.000,0
1644802340.851,-83.984,-38.086,-34.668,-49.805,0.000,0
1644802340.855,-77.148,-38.086,-34.180,-45.898,0.000,0
1644802340.858,-75.684,-38.574,-33.691,-42.969,0.000,0
1644802340.862,-82.031,-36.621,-26.855,-41.504,0.000,0
1644802340.866,-90.820,-39.062,-26.367,-41.992,0.000,0
1644802340.869,-80.078,-34.180,-30.762,-39.062,0.000,0
1644802340.873,-65.918,-28.809,-35.645,-32.715,0.000,0
1644802340.876,-74.219,-30.273,-37.598,-38.086,0.000,0
1644802340.880,-90.820,-35.645,-39.062,-50.781,0.000,0
1644802340.884,-97.168,-40.527,-39.062,-52.246,0.000,0
1644802340.887,-83.008,-41.016,-34.180,-47.852,0.000,0
1644802340.891,-63.965,-34.668,-27.832,-37.598,0.000,0
1644802340.894,-65.918,-25.879,-27.832,-34.668,0.000,0
1644802340.898,-80.078,-32.227,-33.691,-27.832,0.000,0
1644802340.902,-95.703,-42.480,-38.574,-18.555,0.000,0
1644802340.905,-88.867,-33.203,-41.992,-43.945,0.000,0
1644802340.909,-69.336,-24.414,-42.969,-65.918,0.000,0
1644802340.912,-67.383,-32.227,-42.969,-67.383,0.000,0
1644802340.916,-78.125,-34.180,-42.969,-59.082,0.000,0
1644802340.920,-101.562,-36.133,-46.875,-62.500,0.000,0
1644802340.923,-100.586,-40.527,-45.898,-64.453,0.000,0
1644802340.927,-69.336,-41.016,-44.922,-35.645,0.000,0
1644802340.930,-67.871,-37.598,-46.875,-38.086,0.000,0
1644802340.934,-81.543,-31.738,-44.434,-55.176,0.000,0
1644802340.938,-91.797,-39.062,-37.598,-52.246,0.000,0
1644802340.941,-93.750,-44.922,-33.691,-47.852,0.000,1
1644802340.945,-81.543,-41.504,-37.598,-51.758,0.000,0
1644802340.948,-73.242,-40.527,-39.551,-48.828,0.000,0
1644802340.953,-76.172,-38.086,-36.133,-36.621,0.000,0
1644802340.956,-88.867,-38.086,-34.668,-23.926,0.000,0
1644802340.960,-92.773,-37.109,-29.785,-38.574,0.000,0
1644802340.963,-80.566,-30.273,-25.391,-63.477,0.000,0
1644802340.967,-65.430,-29.297,-24.902,-53.711,0.000,0
1644802340.971,-68.359,-31.738,-24.902,-33.691,0.000,0
1644802340.974,-90.332,-34.668,-29.297,-26.855,0.000,0
1644802340.978,-103.516,-35.156,-37.598,-51.270,0.000,0
1644802340.981,-77.637,-37.109,-36.621,-60.059,0.000,0
1644802340.985,-56.152,-33.203,-36.621,-39.062,0.000,0
1644802340.989,-75.195,-27.344,-33.691,-39.551,0.000,0
1644802340.992,-98.145,-32.715,-30.273,-53.711,0.000,0
1644802340.998,-95.703,-38.574,-36.621,-60.547,0.000,0
1644802341.001,-75.684,-38.086,-36.621,-65.918,0.000,0
1644802341.005,-64.941,-32.227,-30.762,-49.316,0.000,0
1644802341.008,-77.148,-30.762,-32.227,-29.785,0.000,0
1644802341.012,-90.820,-35.156,-40.039,-36.621,0.000,0
1644802341.016,-91.797,-38.086,-39.551,-43.457,0.000,0
1644802341.019,-75.195,-32.227,-34.180,-54.688,0.000,0
1644802341.023,-65.918,-26.367,-31.738,-51.758,0.000,0
1644802341.026,-59.082,-28.809,-27.832,-30.762,0.000,0
1644802341.030,-68.359,-37.109,-28.320,-29.785,0.000,0
1644802341.034,-95.703,-41.992,-34.180,-51.758,0.000,0
1644802341.037,-84.961,-41.016,-34.180,-59.082,0.000,0
1644802341.042,-60.547,-32.715,-30.762,-53.223,0.000,0
1644802341.045,-66.406,-28.320,-31.738,-45.410,0.000,0
1644802341.049,-90.820,-29.297,-35.156,-41.992,0.000,0
1644802341.052,-100.586,-30.762,-38.574,-42.480,0.000,0
1644802341.056,-81.055,-28.320,-35.645,-48.828,0.000,0
1644802341.060,-60.547,-22.461,-29.297,-40.527,0.000,0
1644802341.063,-63.965,-22.461,-28.809,-45.898,0.000,0
1644802341.067,-83.984,-36.621,-38.574,-52.246,0.000,0
1644802341.070,-96.191,-47.363,-45.898,-44.922,0.000,0
1644802341.074,-95.215,-42.480,-44.434,-60.547,0.000,0
1644802341.077,-85.449,-35.645,-41.016,-71.289,0.000,0
1644802341.081,-69.824,-34.180,-36.133,-59.570,0.000,0
1644802341.086,-75.195,-36.621,-33.203,-46.387,0.000,0
1644802341.089,-90.820,-44.922,-35.645,-68.359,0.000,0
1644802341.093,-81.055,-44.434,-31.250,-81.055,0.000,0
1644802341.096,-61.035,-38.086,-26.855,-51.270,0.000,0
1644802341.100,-59.570,-41.992,-31.250,-36.621,0.000,0
1644802341.103,-76.172,-37.109,-33.691,-45.898,0.000,0
1644802341.107,-96.680,-37.598,-37.598,-42.969,0.000,0
1644802341.111,-90.332,-42.969,-38.086,-46.387,0.000,0
1644802341.114,-69.824,-37.109,-34.668,-48.340,0.000,0
1644802341.118,-69.824,-26.855,-32.715,-49.316,0.000,0
1644802341.121,-76.660,-29.785,-37.109,-44.922,0.000,0
1644802341.125,-83.008,-35.156,-34.668,-38.574,0.000,0
1644802341.129,-80.078,-34.180,-33.203,-47.363,0.000,0
1644802341.133,-65.430,-31.738,-36.133,-44.922,0.000,0
1644802341.137,-53.711,-29.785,-35.645,-39.062,0.000,0
1644802341.140,-57.129,-29.785,-39.551,-40.039,0.000,0
1644802341.144,-83.496,-30.762,-46.875,-44.922,0.000,0
1644802341.147,-91.309,-35.645,-46.387,-53.711,0.000,0
1644802341.151,-71.777,-40.039,-41.016,-58.594,0.000,0
1644802341.155,-58.594,-41.992,-38.574,-54.199,0.000,0
1644802341.158,-61.035,-33.203,-38.086,-51.270,0.000,0
1644802341.162,-79.102,-25.391,-36.133,-51.758,0.000,0
1644802341.165,-83.008,-36.133,-34.180,-52.246,0.000,0
1644802341.169,-62.500,-39.062,-35.645,-67.383,0.000,0
1644802341.174,-56.152,-26.855,-35.645,-58.105,0.000,0
1644802341.178,-69.336,-21.973,-38.086,-41.504,0.000,0
1644802341.181,-77.637,-32.715,-42.480,-21.973,0.000,0
1644802341.185,-82.031,-38.086,-44.434,-17.578,0.000,0
1644802341.188,-66.895,-31.738,-42.480,-39.062,0.000,0
1644802341.192,-53.223,-29.297,-39.062,-39.062,0.000,0
1644802341.195,-67.383,-37.598,-43.457,-25.879,0.000,0
1644802341.199,-78.125,-39.062,-48.340,-33.691,0.000,0
1644802341.203,-94.727,-28.809,-48.828,-58.105,0.000,0
1644802341.206,-86.426,-26.367,-51.758,-59.082,0.000,0
1644802341.210,-58.594,-27.344,-45.410,-41.504,0.000,0
1644802341.213,-58.594,-28.809,-36.621,-47.852,0.000,0
1644802341.218,-80.566,-29.297,-39.551,-65.918,0.000,0
1644802341.222,-92.285,-36.133,-46.875,-64.941,0.000,0
1644802341.225,-83.496,-37.598,-44.922,-59.082,0.000,0
1644802341.229,-68.848,-29.785,-39.062,-58.105,0.000,0
1644802341.232,-71.289,-33.691,-41.992,-67.871,0.000,0
1644802341.236,-83.008,-43.457,-47.363,-54.688,0.000,0
1644802341.239,-93.750,-44.434,-52.246,-43.457,0.000,0
1644802341.243,-93.262,-40.039,-50.293,-61.523,0.000,0
1644802341.247,-69.336,-31.250,-44.922,-65.430,0.000,0
1644802341.250,-63.477,-33.203,-44.434,-57.617,0.000,0
1644802341.254,-82.520,-47.852,-39.551,-53.711,0.000,0
1644802341.257,-107.422,-43.457,-44.922,-43.945,0.000,0
1644802341.262,-100.586,-31.250,-48.828,-43.457,0.000,0
1644802341.266,-81.543,-26.855,-35.156,-45.898,0.000,0
1644802341.269,-74.707,-25.391,-29.785,-36.133,0.000,0
1644802341.273,-79.102,-30.762,-42.480,-26.855,0.000,0
1644802341.276,-93.262,-35.645,-43.457,-24.414,0.000,0
1644802341.280,-89.355,-41.016,-37.598,-32.715,0.000,0
1644802341.284,-73.242,-41.504,-36.621,-48.340,0.000,0
1644802341.287,-73.730,-34.180,-38.086,-46.875,0.000,0
1644802341.291,-85.449,-32.715,-39.062,-38.086,0.000,0
1644802341.294,-97.656,-39.551,-41.016,-45.898,0.000,0
1644802341.298,-107.422,-40.039,-43.945,-57.617,0.000,0
1644802341.302,-90.332,-35.156,-38.574,-47.363,0.000,0
1644802341.307,-72.266,-34.180,-36.621,-39.551,0.000,0
1644802341.311,-81.055,-37.598,-41.016,-42.480,0.000,0
1644802341.314,-98.145,-39.062,-42.480,-22.949,0.000,0
1644802341.318,-101.074,-45.898,-42.480,-33.691,0.000,0
1644802341.321,-82.031,-46.387,-39.062,-55.176,0.000,0
1644802341.325,-65.918,-42.969,-33.203,-36.621,0.000,0
1644802341.329,-79.590,-40.527,-36.133,-40.039,0.000,0
1644802341.332,-101.562,-32.715,-34.180,-45.898,0.000,0
1644802341.336,-102.051,-35.645,-32.715,-44.434,0.000,0
1644802341.339,-87.891,-37.109,-31.250,-46.387,0.000,0
1644802341.343,-71.289,-27.832,-28.809,-51.270,0.000,0
1644802341.347,-77.637,-25.879,-36.133,-57.129,0.000,0
1644802341.352,-92.285,-32.715,-41.992,-39.062,0.000,0
1644802341.355,-92.285,-35.645,-38.086,-28.320,0.000,0
1644802341.359,-90.332,-36.133,-35.645,-65.430,0.000,0
1644802341.362,-72.754,-36.133,-35.645,-79.102,0.000,0
1644802341.366,-62.012,-35.645,-35.645,-41.504,0.000,0
1644802341.370,-89.844,-40.527,-39.551,-23.926,0.000,0
1644802341.373,-109.863,-44.434,-41.992,-38.574,0.000,0
1644802341.377,-98.633,-48.340,-36.133,-37.598,0.000,0
1644802341.380,-83.984,-45.898,-30.762,-36.133,0.000,0
1644802341.384,-76.660,-39.551,-37.109,-54.199,0.000,0
1644802341.388,-90.332,-39.551,-43.457,-53.223,0.000,0
1644802341.391,-99.609,-34.668,-41.016,-51.270,0.000,0
1644802341.397,-74.219,-34.668,-40.527,-37.598,0.000,0
1644802341.400,-52.734,-32.715,-43.945,-21.973,0.000,0
1644802341.404,-50.781,-24.414,-48.828,-47.363,0.000,0
1644802341.407,-74.219,-28.320,-53.711,-58.105,0.000,0
1644802341.411,-92.285,-36.621,-55.664,-40.527,0.000,0
1644802341.415,-83.008,-38.086,-52.246,-47.363,0.000,0
1644802341.418,-73.242,-29.785,-45.410,-50.293,0.000,0
1644802341.422,-64.453,-33.203,-45.410,-35.156,0.000,0
1644802341.425,-72.266,-39.551,-45.410,-22.461,0.000,0
1644802341.429,-100.586,-31.738,-42.969,-31.738,0.000,0
1644802341.433,-91.797,-24.414,-39.551,-45.410,0.000,0
1644802341.436,-68.359,-25.879,-39.062,-48.828,0.000,0
1644802341.443,-73.242,-24.414,-39.062,-27.832,0.000,0
1644802341.446,-81.055,-22.461,-39.062,-33.203,0.000,0
1644802341.450,-89.355,-33.691,-39.062,-45.410,0.000,0
1644802341.453,-87.891,-39.551,-34.668,-32.227,0.000,0
1644802341.457,-79.590,-27.344,-30.762,-38.086,0.000,0
1644802341.461,-76.172,-25.879,-28.809,-40.039,0.000,0
1644802341.464,-77.637,-29.785,-24.414,-38.574,0.000,0
1644802341.468,-83.496,-33.203,-25.391,-24.414,0.000,0
1644802341.471,-91.309,-33.203,-36.621,-33.203,0.000,0
1644802341.475,-75.195,-28.320,-38.086,-48.340,0.000,0
1644802341.479,-60.059,-24.902,-34.180,-29.297,0.000,0
1644802341.482,-59.082,-25.879,-35.156,-27.832,0.000,0
1644802341.488,-82.520,-29.297,-35.156,-41.016,0.000,0
1644802341.491,-108.398,-27.832,-36.621,-57.617,0.000,0
1644802341.495,-86.426,-25.879,-33.203,-62.012,0.000,0
1644802341.498,-70.801,-23.438,-31.738,-43.457,0.000,0
1644802341.502,-73.242,-23.926,-36.133,-39.062,0.000,0
1644802341.506,-92.773,-24.902,-41.992,-55.664,0.000,0
1644802341.509,-111.328,-30.273,-37.598,-69.336,0.000,0
1644802341.513,-90.820,-31.738,-30.273,-65.918,0.000,0
1644802341.516,-65.918,-23.926,-28.809,-51.270,0.000,0
1644802341.520,-65.918,-19.043,-25.391,-48.340,0.000,0
1644802341.524,-87.402,-24.902,-28.809,-40.527,0.000,0
1644802341.527,-104.004,-29.785,-26.367,-51.758,0.000,0
1644802341.533,-98.145,-25.391,-19.531,-65.918,0.000,0
1644802341.537,-71.289,-17.090,-18.066,-51.758,0.000,0
1644802341.540,-56.152,-20.020,-18.066,-27.344,0.000,0
1644802341.544,-82.520,-24.902,-22.461,-24.902,0.000,0
1644802341.547,-109.375,-25.391,-21.973,-35.156,0.000,0
1644802341.551,-90.820,-27.832,-16.602,-46.875,0.000,0
1644802341.555,-59.082,-28.320,-15.137,-49.316,0.000,0
1644802341.558,-59.570,-25.391,-16.602,-32.227,0.000,0
1644802341.562,-75.684,-22.461,-20.020,-37.598,0.000,0
1644802341.565,-86.426,-21.973,-19.531,-29.785,0.000,0
1644802341.569,-71.777,-28.809,-18.066,-25.391,0.000,0
1644802341.573,-47.363,-26.855,-16.113,-27.832,0.000,0
1644802341.578,-59.082,-17.578,-14.160,-30.273,0.000,0
1644802341.581,-80.078,-21.973,-19.531,-29.785,0.000,0
1644802341.585,-98.633,-28.809,-26.855,-28.320,0.000,0
1644802341.588,-99.121,-27.832,-25.391,-43.945,0.000,0
1644802341.592,-74.219,-21.973,-22.949,-55.176,0.000,0
1644802341.596,-61.523,-23.438,-22.461,-44.922,0.000,0
1644802341.599,-75.195,-23.438,-20.508,-38.086,0.000,0
1644802341.603,-107.422,-26.367,-27.832,-41.504,0.000,0
1644802341.606,-113.770,-30.762,-34.180,-56.152,0.000,0
1644802341.610,-83.984,-27.344,-27.832,-76.172,0.000,0
1644802341.614,-69.336,-26.855,-21.484,-64.941,0.000,0
1644802341.617,-79.590,-29.785,-21.484,-51.270,0.000,0
1644802341.623,-104.980,-29.297,-22.461,-49.316,0.000,0
1644802341.627,-109.375,-36.621,-22.461,-51.758,0.000,0
1644802341.630,-70.801,-35.156,-19.043,-41.992,0.000,0
1644802341.634,-63.477,-16.602,-13.672,-52.734,0.000,0
1644802341.637,-76.172,-15.625,-11.230,-69.824,0.000,0
1644802341.641,-88.867,-25.879,-16.113,-53.711,0.000,0
1644802341.645,-105.469,-26.855,-23.438,-45.410,0.000,0
1644802341.648,-98.633,-22.949,-20.996,-49.805,0.000,0
1644802341.652,-83.008,-24.414,-22.949,-55.664,0.000,0
1644802341.655,-76.660,-28.320,-25.879,-46.875,0.000,0
1644802341.659,-84.961,-27.832,-25.391,-26.367,0.000,0
1644802341.663,-95.215,-23.926,-20.996,-36.621,0.000,0
1644802341.669,-76.172,-20.508,-19.531,-49.316,0.000,0
1644802341.673,-59.082,-18.555,-18.066,-42.969,0.000,0
1644802341.677,-69.824,-22.461,-21.973,-45.410,0.000,0
1644802341.680,-86.914,-26.367,-26.367,-53.223,0.000,0
1644802341.684,-97.656,-30.273,-27.344,-62.500,0.000,0
1644802341.687,-93.262,-30.762,-28.809,-62.500,0.000,0
1644802341.691,-76.660,-28.320,-26.367,-50.293,0.000,0
1644802341.695,-67.871,-24.902,-22.461,-49.316,0.000,0
1644802341.698,-87.891,-23.438,-23.438,-59.570,0.000,0
1644802341.702,-102.539,-28.320,-31.250,-57.129,0.000,0
1644802341.705,-83.984,-29.785,-24.414,-53.223,0.000,0
1644802341.709,-67.871,-28.320,-17.090,-48.828,0.000,0
1644802341.715,-65.918,-29.297,-23.438,-41.992,0.000,0
1644802341.718,-73.730,-31.250,-31.250,-32.227,0.000,0
1644802341.722,-94.238,-31.738,-36.621,-36.133,0.000,0
1644802341.726,-90.332,-31.250,-29.785,-58.594,0.000,0
1644802341.729,-71.777,-28.320,-28.320,-53.223,0.000,0
1644802341.733,-68.848,-23.926,-35.156,-41.016,0.000,0
1644802341.736,-76.172,-27.344,-33.691,-52.734,0.000,0
1644802341.740,-92.285,-39.551,-32.227,-45.410,0.000,0
1644802341.744,-97.656,-38.574,-26.855,-39.551,0.000,0
1644802341.747,-79.590,-27.344,-26.367,-48.828,0.000,0
1644802341.751,-67.871,-15.625,-33.691,-50.781,0.000,0
1644802341.754,-73.242,-17.090,-38.086,-54.199,0.000,0
1644802341.760,-95.703,-30.273,-42.480,-67.383,0.000,0
1644802341.764,-105.469,-30.273,-42.969,-76.660,0.000,0
1644802341.768,-83.008,-24.414,-35.156,-63.965,0.000,0
1644802341.771,-67.383,-27.344,-30.762,-45.898,0.000,0
1644802341.775,-72.266,-24.902,-33.691,-44.922,0.000,0
1644802341.779,-97.168,-26.367,-33.203,-59.082,0.000,0
1644802341.782,-105.957,-37.598,-33.691,-63.965,0.000,0
1644802341.786,-84.961,-35.645,-33.691,-62.988,0.000,0
1644802341.789,-62.500,-31.738,-33.203,-43.457,0.000,0
1644802341.793,-62.012,-25.391,-34.668,-39.551,0.000,0
1644802341.797,-101.074,-23.926,-35.645,-43.945,0.000,0
1644802341.800,-118.164,-34.180,-38.574,-43.945,0.000,0
1644802341.805,-93.750,-38.574,-37.109,-59.570,0.000,0
1644802341.809,-83.008,-30.273,-31.250,-61.035,0.000,0
1644802341.813,-84.473,-23.438,-22.949,-48.828,0.000,0
1644802341.816,-91.309,-30.273,-26.855,-35.156,0.000,0
1644802341.820,-102.051,-37.598,-38.086,-29.785,0.000,0
1644802341.823,-83.496,-35.645,-38.086,-50.781,0.000,0
1644802341.827,-58.594,-27.832,-35.645,-69.336,0.000,0
1644802341.831,-54.199,-32.227,-36.621,-60.059,0.000,0
1644802341.834,-66.406,-35.645,-35.156,-40.039,0.000,0
1644802341.838,-86.426,-32.227,-33.691,-51.758,0.000,0
1644802341.842,-75.684,-35.645,-35.156,-74.219,0.000,0
1644802341.845,-62.500,-34.180,-26.367,-56.641,0.000,0
1644802341.851,-63.477,-26.367,-24.414,-34.668,0.000,1
1644802341.854,-68.848,-25.879,-29.297,-32.715,0.000,0
1644802341.858,-89.844,-37.598,-36.621,-40.039,0.000,0
1644802341.862,-83.008,-43.945,-34.668,-47.363,0.000,0
1644802341.865,-64.941,-38.086,-27.344,-41.992,0.000,0
1644802341.869,-59.082,-38.574,-38.086,-62.500,0.000,0
1644802341.872,-68.848,-42.480,-43.945,-72.754,0.000,0
1644802341.876,-102.051,-44.922,-42.969,-54.199,0.000,0
1644802341.880,-105.957,-43.945,-40.039,-60.547,0.000,0
1644802341.883,-78.125,-40.527,-33.691,-62.500,0.000,0
1644802341.887,-62.012,-40.527,-40.527,-40.527,0.000,0
1644802341.891,-80.566,-37.598,-42.969,-30.273,0.000,0
1644802341.896,-105.957,-36.621,-39.551,-46.387,0.000,0
1644802341.899,-102.051,-39.551,-38.086,-59.082,0.000,0
1644802341.903,-76.660,-47.363,-31.738,-58.594,0.000,0
1644802341.907,-63.477,-43.457,-31.250,-45.410,0.000,0
1644802341.910,-73.242,-37.598,-35.156,-40.039,0.000,0
1644802341.914,-101.562,-44.922,-35.156,-46.387,0.000,0
1644802341.917,-104.004,-46.387,-35.156,-54.688,0.000,0
1644802341.921,-78.613,-41.016,-38.086,-65.918,0.000,0
1644802341.925,-65.430,-35.645,-35.645,-55.176,0.000,0
1644802341.928,-73.730,-33.203,-38.574,-37.598,0.000,0
1644802341.932,-92.285,-45.898,-49.805,-30.762,0.000,0
1644802341.936,-100.586,-51.758,-42.969,-38.574,0.000,0
1644802341.941,-80.078,-39.551,-31.738,-56.152,0.000,0
1644802341.944,-66.895,-33.203,-38.574,-63.477,0.000,0
1644802341.948,-83.008,-38.574,-41.016,-53.711,0.000,0
1644802341.951,-99.609,-36.621,-39.062,-50.781,0.000,0
1644802341.955,-105.469,-33.691,-45.410,-72.754,0.000,0
1644802341.959,-86.914,-40.527,-41.992,-75.195,0.000,0
1644802341.962,-62.012,-43.457,-33.691,-61.035,0.000,0
1644802341.966,-82.520,-36.621,-38.574,-60.547,0.000,0
1644802341.970,-110.840,-33.203,-42.969,-55.664,0.000,0
1644802341.973,-106.934,-41.504,-41.016,-50.293,0.000,0
1644802341.977,-92.773,-40.527,-38.086,-58.105,0.000,0
1644802341.980,-67.871,-33.203,-30.762,-53.223,0.000,0
1644802341.987,-62.988,-33.203,-40.527,-42.480,0.000,0
1644802341.990,-84.961,-35.645,-46.875,-37.109,0.000,0
1644802341.994,-97.656,-38.574,-35.156,-58.105,0.000,0
1644802341.998,-77.637,-35.645,-29.785,-70.801,0.000,0
1644802342.001,-59.082,-33.203,-31.250,-55.664,0.000,0
1644802342.005,-60.547,-41.504,-33.691,-30.273,0.000,0
1644802342.009,-82.520,-46.387,-37.598,-20.996,0.000,0
1644802342.012,-101.074,-44.434,-42.969,-38.574,0.000,0
1644802342.016,-85.449,-43.945,-39.062,-37.109,0.000,0
1644802342.019,-57.617,-43.457,-25.391,-23.438,0.000,0
1644802342.023,-56.152,-35.645,-23.926,-24.902,0.000,0
1644802342.027,-84.961,-29.785,-31.250,-36.621,0.000,0
1644802342.032,-104.004,-40.039,-35.645,-42.969,0.000,0
1644802342.036,-98.145,-40.039,-37.109,-49.805,0.000,0
1644802342.039,-73.242,-31.738,-32.715,-56.152,0.000,0
1644802342.043,-60.059,-36.621,-29.297,-53.711,0.000,0
1644802342.047,-84.961,-46.875,-38.574,-48.340,0.000,0
1644802342.050,-119.141,-46.875,-50.293,-56.152,0.000,0
1644802342.054,-104.980,-38.086,-47.852,-66.895,0.000,0
1644802342.057,-67.871,-29.785,-31.738,-66.895,0.000,0
1644802342.061,-68.848,-29.785,-22.461,-54.199,0.000,0
1644802342.065,-77.637,-33.203,-28.320,-44.922,0.000,0
1644802342.068,-90.332,-35.645,-39.062,-45.898,0.000,0
1644802342.072,-89.844,-39.551,-38.574,-52.734,0.000,0
1644802342.078,-64.453,-39.062,-30.762,-57.617,0.000,0
1644802342.081,-51.758,-32.715,-30.762,-43.945,0.000,0
1644802342.085,-61.523,-29.785,-34.668,-35.156,0.000,0
1644802342.089,-93.262,-28.320,-40.527,-28.320,0.000,0
1644802342.092,-93.262,-30.762,-44.434,-42.480,0.000,0
1644802342.096,-60.059,-34.668,-36.133,-44.922,0.000,0
1644802342.100,-53.711,-26.367,-33.691,-48.828,0.000,0
1644802342.103,-63.477,-26.367,-37.598,-47.363,0.000,0
1644802342.107,-82.031,-36.133,-39.551,-28.809,0.000,0
1644802342.110,-99.609,-42.969,-41.016,-43.945,0.000,0
1644802342.114,-87.891,-36.621,-33.691,-67.383,0.000,0
1644802342.118,-52.246,-30.762,-34.668,-62.988,0.000,0
1644802342.123,-51.758,-31.250,-45.410,-52.246,0.000,0
1644802342.127,-91.309,-30.273,-48.828,-30.762,0.000,0
1644802342.130,-108.398,-28.809,-42.480,-21.973,0.000,0
1644802342.134,-80.078,-30.762,-36.621,-42.969,0.000,0
1644802342.138,-60.547,-32.715,-39.062,-43.457,0.000,0
1644802342.141,-67.383,-27.832,-39.062,-41.016,0.000,0
1644802342.145,-88.379,-30.762,-30.273,-32.715,0.000,0
1644802342.149,-104.980,-41.504,-37.109,-38.574,0.000,0
1644802342.152,-83.984,-38.086,-43.457,-53.711,0.000,0
1644802342.156,-62.988,-26.855,-36.133,-50.293,0.000,0
1644802342.159,-64.453,-24.414,-35.156,-46.875,0.000,0
1644802342.163,-81.055,-30.273,-39.062,-30.762,0.000,0
1644802342.169,-80.566,-32.227,-41.992,-18.555,0.000,0
1644802342.172,-76.660,-21.973,-38.574,-48.828,0.000,0
1644802342.176,-72.754,-18.066,-33.203,-67.383,0.000,0
1644802342.180,-62.500,-21.484,-32.227,-56.152,0.000,0
1644802342.183,-69.336,-26.367,-36.621,-46.387,0.000,0
1644802342.187,-98.633,-35.156,-41.016,-48.340,0.000,0
1644802342.191,-98.633,-36.133,-41.992,-62.988,0.000,0
1644802342.194,-63.477,-31.250,-40.527,-44.434,0.000,0
1644802342.198,-58.594,-27.344,-31.250,-22.949,0.000,0
1644802342.202,-81.543,-23.926,-24.902,-39.062,0.000,0
1644802342.205,-105.957,-34.668,-30.273,-48.340,0.000,0
1644802342.209,-106.445,-41.992,-32.715,-61.035,0.000,0
1644802342.215,-87.402,-34.668,-34.668,-69.336,0.000,0
1644802342.219,-87.402,-31.250,-36.621,-46.875,0.000,0
1644802342.223,-95.703,-31.250,-30.762,-29.785,0.000,0
1644802342.226,-108.398,-37.598,-35.645,-37.109,0.000,0
1644802342.230,-95.215,-38.574,-41.992,-44.434,0.000,0
1644802342.233,-82.520,-30.762,-39.062,-55.176,0.000,0
1644802342.237,-81.543,-30.762,-34.668,-62.500,0.000,0
1644802342.241,-69.824,-34.180,-35.645,-43.945,0.000,0
1644802342.244,-95.703,-38.086,-39.551,-49.805,0.000,0
1644802342.248,-100.586,-39.551,-36.133,-68.359,0.000,0
1644802342.252,-71.289,-38.086,-37.109,-55.176,0.000,0
1644802342.255,-58.594,-36.133,-35.156,-32.715,0.000,0
1644802342.261,-71.289,-28.320,-32.227,-24.414,0.000,0
1644802342.265,-90.332,-30.762,-39.551,-34.180,0.000,0
1644802342.268,-88.867,-37.598,-47.363,-49.316,0.000,0
1644802342.272,-75.684,-37.109,-40.527,-43.945,0.000,0
1644802342.275,-79.102,-32.715,-29.297,-30.273,0.000,0
1644802342.279,-89.844,-30.762,-35.156,-33.203,0.000,0
1644802342.283,-104.492,-40.527,-46.875,-37.598,0.000,0
1644802342.286,-106.934,-46.875,-44.922,-53.223,0.000,0
1644802342.290,-86.426,-38.574,-33.691,-60.547,0.000,0
1644802342.294,-84.473,-34.668,-30.273,-54.199,0.000,0
1644802342.297,-87.891,-41.992,-32.227,-41.992,0.000,0
1644802342.301,-97.168,-41.016,-33.691,-37.598,0.000,0
1644802342.307,-113.281,-40.527,-31.250,-58.594,0.000,0
1644802342.311,-109.863,-43.945,-35.156,-67.871,0.000,0
1644802342.314,-85.938,-41.016,-36.133,-62.500,0.000,0
1644802342.318,-79.590,-41.504,-33.203,-62.988,0.000,0
1644802342.321,-97.656,-42.480,-38.086,-52.734,0.000,0
1644802342.325,-114.746,-44.434,-40.527,-44.434,0.000,0
1644802342.329,-104.980,-49.316,-35.156,-39.062,0.000,0
1644802342.332,-94.238,-45.898,-34.180,-47.852,0.000,0
1644802342.336,-81.055,-33.691,-33.691,-48.828,0.000,0
1644802342.340,-81.055,-34.180,-26.855,-36.621,0.000,0
1644802342.343,-99.121,-45.410,-38.086,-27.344,0.000,0
1644802342.347,-93.750,-39.062,-48.340,-42.969,0.000,0
1644802342.352,-73.730,-21.484,-42.480,-55.176,0.000,0
1644802342.356,-62.988,-22.461,-39.062,-37.598,0.000,0
1644802342.359,-75.195,-32.715,-42.969,-35.156,0.000,0
1644802342.363,-111.328,-39.551,-52.246,-38.574,0.000,0
1644802342.367,-105.469,-39.062,-52.734,-54.199,0.000,0
1644802342.370,-73.730,-41.504,-42.480,-61.523,0.000,0
1644802342.374,-78.613,-44.922,-36.621,-53.223,0.000,0
1644802342.378,-92.773,-38.574,-40.527,-43.945,0.000,0
1644802342.381,-104.980,-38.086,-44.434,-37.109,0.000,0
1644802342.385,-106.445,-43.457,-45.410,-44.434,0.000,0
1644802342.389,-87.402,-43.457,-44.434,-58.594,0.000,0
1644802342.392,-80.566,-36.133,-44.434,-65.918,0.000,0
1644802342.398,-85.938,-38.086,-44.922,-53.223,0.000,0
1644802342.401,-108.398,-47.363,-48.828,-48.340,0.000,0
1644802342.405,-125.000,-44.922,-51.270,-62.988,0.000,0
1644802342.409,-102.539,-41.992,-42.969,-67.383,0.000,0
1644802342.412,-81.055,-38.086,-40.039,-50.781,0.000,0
1644802342.416,-78.613,-36.621,-46.875,-32.227,0.000,0
1644802342.420,-93.750,-34.180,-49.316,-31.250,0.000,0
1644802342.423,-94.727,-26.855,-49.316,-46.387,0.000,0
1644802342.427,-84.961,-32.227,-44.434,-49.316,0.000,0
1644802342.431,-93.262,-37.109,-41.504,-50.781,0.000,0
1644802342.434,-94.238,-42.480,-41.016,-50.293,0.000,0
1644802342.438,-109.375,-46.387,-43.457,-38.574,0.000,0
1644802342.444,-119.141,-44.434,-45.410,-52.734,0.000,0
1644802342.447,-96.680,-38.086,-46.875,-69.336,0.000,0
1644802342.451,-81.543,-31.738,-45.898,-45.410,0.000,0
1644802342.455,-78.613,-26.367,-37.598,-37.598,0.000,0
1644802342.458,-97.168,-29.297,-41.016,-47.852,0.000,0
1644802342.462,-104.980,-38.574,-43.945,-44.922,0.000,0
1644802342.466,-81.543,-36.133,-35.645,-44.922,0.000,0
1644802342.469,-76.660,-27.832,-37.598,-42.969,0.000,0
1644802342.473,-74.219,-31.250,-40.039,-27.344,0.000,0
1644802342.476,-87.891,-33.203,-37.598,-17.090,0.000,0
1644802342.480,-118.164,-34.668,-42.480,-46.875,0.000,0
1644802342.484,-110.352,-34.668,-47.852,-71.289,0.000,0
1644802342.489,-90.332,-33.691,-47.363,-54.688,0.000,0
1644802342.493,-94.727,-34.668,-40.527,-45.410,0.000,0
1644802342.497,-114.746,-39.062,-43.457,-55.176,0.000,0
1644802342.500,-129.395,-48.340,-46.387,-56.152,0.000,0
1644802342.504,-112.305,-51.270,-43.457,-51.270,0.000,0
1644802342.508,-95.215,-46.387,-40.527,-41.016,0.000,0
1644802342.511,-92.285,-38.086,-41.504,-19.531,0.000,0
1644802342.515,-98.145,-41.016,-46.387,-23.438,0.000,0
1644802342.518,-107.422,-40.527,-45.410,-36.133,0.000,0
1644802342.522,-99.609,-31.250,-43.945,-54.688,0.000,0
1644802342.526,-86.426,-32.715,-43.945,-70.312,0.000,0
1644802342.529,-70.312,-38.086,-41.504,-49.805,0.000,0
1644802342.536,-78.613,-43.457,-39.551,-35.156,0.000,0
1644802342.539,-116.699,-41.504,-43.457,-44.922,0.000,0
1644802342.543,-119.629,-42.480,-43.457,-62.012,0.000,0
1644802342.547,-99.609,-41.992,-39.062,-68.848,0.000,0
1644802342.550,-78.613,-32.227,-40.527,-51.270,0.000,0
1644802342.554,-83.984,-30.762,-43.945,-49.805,0.000,0
1644802342.557,-106.934,-32.715,-51.270,-61.523,0.000,0
1644802342.561,-109.863,-36.621,-49.316,-65.430,0.000,0
1644802342.565,-94.727,-36.133,-40.527,-55.664,0.000,0
1644802342.568,-83.496,-24.414,-35.156,-58.105,0.000,0
1644802342.572,-84.473,-24.902,-37.598,-59.570,0.000,0
1644802342.576,-104.492,-33.203,-36.133,-48.828,0.000,0
1644802342.581,-107.422,-30.273,-30.762,-63.965,0.000,0
1644802342.585,-85.938,-20.020,-28.809,-59.570,0.000,0
1644802342.588,-76.172,-21.973,-25.391,-41.992,0.000,0
1644802342.592,-77.148,-28.320,-22.949,-38.574,0.000,0
1644802342.596,-91.797,-31.738,-28.809,-40.039,0.000,0
1644802342.599,-100.586,-37.598,-30.273,-49.316,0.000,0
1644802342.603,-84.961,-33.691,-27.832,-46.387,0.000,0
1644802342.607,-69.824,-26.367,-33.691,-36.621,0.000,0
1644802342.610,-69.824,-26.855,-31.250,-32.715,0.000,1
1644802342.614,-96.680,-29.785,-32.227,-42.969,0.000,0
1644802342.618,-119.141,-35.156,-39.062,-57.129,0.000,0
1644802342.621,-100.098,-29.297,-33.691,-58.105,0.000,0
1644802342.627,-73.242,-20.508,-27.344,-49.805,0.000,0
1644802342.631,-76.660,-22.461,-25.879,-52.246,0.000,0
1644802342.634,-107.910,-32.715,-37.109,-49.316,0.000,0
1644802342.638,-110.840,-37.598,-41.016,-40.039,0.000,0
1644802342.642,-96.191,-32.227,-31.738,-61.523,0.000,0
1644802342.645,-86.914,-35.156,-30.762,-67.383,0.000,0
1644802342.649,-82.520,-36.133,-34.180,-45.410,0.000,0
1644802342.653,-89.844,-34.180,-38.086,-41.016,0.000,0
1644802342.656,-102.051,-31.738,-40.039,-57.617,0.000,0
1644802342.660,-96.680,-32.227,-35.156,-59.570,0.000,0
1644802342.663,-85.449,-29.297,-31.250,-45.898,0.000,0
1644802342.667,-81.055,-25.879,-31.738,-29.785,0.000,0
1644802342.667,-81.055,-25.879,-31.738,-29.785,0.000,0
1644802342.672,-89.355,-27.344,-28.809,-13.184,0.000,0
1644802342.676,-101.074,-32.715,-28.320,-21.973,0.000,0
1644802342.680,-96.191,-34.668,-26.367,-43.945,0.000,0
1644802342.683,-80.078,-25.879,-24.414,-52.734,0.000,0
1644802342.687,-68.848,-22.461,-25.391,-43.457,0.000,0
1644802342.691,-77.148,-27.344,-25.391,-36.133,0.000,0
1644802342.694,-92.285,-36.621,-28.320,-47.363,0.000,0
1644802342.698,-99.121,-37.109,-29.297,-57.617,0.000,0
1644802342.702,-88.867,-29.297,-23.438,-48.828,0.000,0
1644802342.705,-82.520,-28.809,-22.461,-40.039,0.000,0
1644802342.709,-92.285,-37.598,-24.902,-31.250,0.000,0
1644802342.713,-103.027,-35.156,-20.020,-30.273,0.000,0
1644802342.718,-108.398,-23.926,-22.949,-50.781,0.000,0
1644802342.722,-85.938,-23.438,-30.273,-47.363,0.000,0
1644802342.726,-74.219,-22.949,-28.809,-31.738,0.000,0
1644802342.729,-84.961,-22.461,-22.461,-47.363,0.000,0
1644802342.733,-96.680,-25.879,-19.043,-62.988,0.000,0
1644802342.737,-79.590,-29.297,-21.973,-48.828,0.000,0
1644802342.740,-64.453,-26.367,-20.996,-30.762,0.000,0
1644802342.744,-79.102,-17.090,-20.508,-36.621,0.000,0
1644802342.748,-83.008,-18.066,-19.531,-46.387,0.000,0
1644802342.751,-94.727,-27.344,-23.438,-42.969,0.000,0
1644802342.755,-103.516,-30.273,-27.344,-52.734,0.000,0
1644802342.758,-87.891,-24.902,-32.227,-56.152,0.000,0
1644802342.765,-67.383,-33.691,-34.668,-46.387,0.000,0
1644802342.769,-70.801,-44.434,-31.250,-35.645,0.000,0
1644802342.772,-97.168,-39.062,-28.320,-23.438,0.000,0
1644802342.776,-101.562,-35.645,-21.973,-38.574,0.000,0
1644802342.779,-81.055,-37.598,-22.461,-46.875,0.000,0
1644802342.783,-68.359,-40.039,-27.832,-37.109,0.000,0
1644802342.787,-71.777,-34.668,-23.438,-36.133,0.000,0
1644802342.790,-83.984,-31.738,-18.555,-36.133,0.000,0
1644802342.794,-107.422,-43.945,-27.832,-51.270,0.000,0
1644802342.798,-92.773,-43.945,-31.250,-43.457,0.000,0
1644802342.801,-66.895,-32.227,-26.855,-26.367,0.000,0
1644802342.805,-83.008,-30.762,-28.320,-36.133,0.000,0
1644802342.811,-100.098,-34.668,-28.809,-48.340,0.000,0
1644802342.814,-98.145,-36.133,-28.320,-62.988,0.000,0
1644802342.818,-95.703,-35.156,-26.855,-78.613,0.000,0
1644802342.822,-89.844,-32.227,-25.879,-60.059,0.000,0
1644802342.825,-72.266,-24.902,-22.949,-32.715,0.000,0
1644802342.829,-86.914,-31.250,-24.902,-42.969,0.000,0
1644802342.833,-122.559,-39.062,-36.133,-60.547,0.000,0
1644802342.836,-114.258,-35.156,-37.598,-58.594,0.000,0
1644802342.840,-83.008,-41.016,-29.785,-40.039,0.000,0
1644802342.844,-71.777,-37.598,-34.668,-35.645,0.000,0
1644802342.847,-86.426,-31.250,-38.574,-40.039,0.000,0
1644802342.851,-101.562,-37.598,-37.109,-35.156,0.000,0
1644802342.857,-96.680,-33.691,-32.715,-43.945,0.000,0
1644802342.860,-79.590,-27.344,-27.832,-52.246,0.000,0
1644802342.864,-65.918,-25.391,-27.344,-37.598,0.000,0
1644802342.868,-78.125,-28.320,-26.367,-41.016,0.000,0
1644802342.871,-94.727,-40.039,-26.855,-48.828,0.000,0
1644802342.875,-101.562,-41.992,-36.621,-60.547,0.000,0
1644802342.879,-82.520,-24.414,-35.156,-59.082,0.000,0
1644802342.882,-70.801,-20.996,-26.855,-40.527,0.000,0
1644802342.886,-96.680,-33.691,-34.180,-41.504,0.000,0
1644802342.890,-126.953,-35.156,-38.086,-41.504,0.000,0
1644802342.893,-117.676,-30.762,-31.738,-50.293,0.000,0
1644802342.897,-83.008,-31.738,-27.832,-58.105,0.000,0
1644802342.903,-74.219,-30.273,-22.949,-44.922,0.000,0
1644802342.906,-86.914,-27.344,-25.391,-25.391,0.000,0
1644802342.910,-104.980,-33.203,-34.180,-19.043,0.000,0
1644802342.913,-109.863,-40.039,-32.715,-38.086,0.000,0
1644802342.917,-84.961,-32.715,-30.762,-46.875,0.000,0
1644802342.921,-75.684,-27.832,-32.715,-29.785,0.000,0
1644802342.924,-92.285,-30.762,-33.203,-41.504,0.000,0
1644802342.928,-103.516,-34.180,-29.297,-42.969,0.000,0
1644802342.932,-114.746,-36.621,-26.367,-44.434,0.000,0
1644802342.935,-97.656,-29.785,-25.391,-58.594,0.000,0
1644802342.939,-75.195,-22.461,-21.973,-37.109,0.000,0
1644802342.943,-83.496,-27.832,-22.949,-14.648,0.000,0
1644802342.949,-104.004,-33.203,-25.879,-21.484,0.000,0
1644802342.952,-119.141,-33.691,-31.250,-54.199,0.000,0
1644802342.956,-100.098,-38.086,-36.621,-67.383,0.000,0
1644802342.960,-82.031,-33.203,-33.203,-58.105,0.000,0
1644802342.963,-83.984,-30.762,-34.668,-57.617,0.000,0
1644802342.967,-84.961,-35.156,-37.109,-49.805,0.000,0
1644802342.971,-100.098,-40.039,-39.551,-46.387,0.000,0
1644802342.974,-106.445,-39.551,-33.691,-42.969,0.000,0
1644802342.978,-95.703,-28.809,-27.344,-50.781,0.000,0
1644802342.981,-93.262,-22.461,-35.156,-55.664,0.000,0
1644802342.985,-98.633,-31.738,-40.527,-49.805,0.000,0
1644802342.989,-116.699,-41.504,-37.598,-63.965,0.000,0
1644802342.995,-116.211,-37.109,-34.180,-58.594,0.000,0
1644802342.998,-94.238,-30.762,-31.738,-43.457,0.000,0
1644802343.002,-98.633,-32.227,-35.156,-39.551,0.000,0
1644802343.006,-110.352,-29.785,-36.621,-42.480,0.000,0
1644802343.009,-119.141,-34.668,-38.574,-61.035,0.000,0
1644802343.013,-105.469,-35.645,-46.387,-65.430,0.000,0
1644802343.017,-95.215,-30.762,-47.852,-66.895,0.000,0
1644802343.020,-89.355,-30.762,-43.457,-54.199,0.000,0
1644802343.024,-96.191,-31.250,-38.574,-53.711,0.000,0
1644802343.028,-116.211,-37.598,-41.992,-69.824,0.000,0
1644802343.031,-114.746,-48.340,-45.898,-46.875,0.000,0
1644802343.035,-99.609,-43.457,-41.016,-46.387,0.000,0
1644802343.040,-81.055,-30.273,-41.504,-51.270,0.000,0
1644802343.044,-76.660,-29.297,-46.387,-41.992,0.000,0
1644802343.048,-103.027,-30.762,-46.875,-53.711,0.000,0
1644802343.051,-117.188,-39.551,-41.992,-67.871,0.000,0
1644802343.055,-97.168,-37.109,-33.691,-61.523,0.000,0
1644802343.059,-87.402,-25.391,-29.785,-44.922,0.000,0
1644802343.062,-95.215,-34.668,-29.297,-34.180,0.000,0
1644802343.066,-106.445,-42.480,-33.691,-36.133,0.000,0
1644802343.070,-114.258,-34.180,-42.480,-57.129,0.000,0
1644802343.073,-101.562,-28.320,-37.109,-48.340,0.000,0
1644802343.077,-81.055,-30.273,-30.273,-27.344,0.000,0
1644802343.081,-88.867,-31.250,-33.203,-38.574,0.000,0
1644802343.087,-109.375,-28.809,-39.551,-43.945,0.000,0
1644802343.090,-107.910,-38.086,-41.016,-33.203,0.000,0
1644802343.094,-94.727,-41.992,-31.738,-33.691,0.000,0
1644802343.098,-83.008,-30.762,-34.668,-51.270,0.000,0
1644802343.101,-88.867,-29.785,-42.969,-50.293,0.000,0
1644802343.105,-106.934,-39.551,-40.039,-40.527,0.000,0
1644802343.109,-104.492,-41.504,-35.645,-40.039,0.000,0
1644802343.112,-92.773,-34.668,-36.621,-52.734,0.000,0
1644802343.116,-85.449,-34.668,-37.109,-50.293,0.000,0
1644802343.120,-78.613,-39.062,-40.039,-39.551,0.000,0
1644802343.123,-92.285,-40.039,-43.457,-31.250,0.000,0
1644802343.127,-123.047,-42.969,-41.992,-43.945,0.000,0
1644802343.133,-118.164,-44.434,-38.574,-64.941,0.000,0
1644802343.136,-94.727,-38.574,-38.086,-61.523,0.000,0
1644802343.140,-86.914,-35.645,-37.598,-49.316,0.000,0
1644802343.144,-105.957,-33.203,-42.480,-43.945,0.000,0
1644802343.147,-121.582,-42.480,-46.387,-58.105,0.000,0
1644802343.151,-101.562,-47.363,-44.434,-60.547,0.000,0
1644802343.155,-85.449,-41.992,-38.086,-45.898,0.000,0
1644802343.158,-74.219,-40.527,-33.691,-48.340,0.000,0
1644802343.162,-75.684,-38.086,-31.738,-47.363,0.000,0
1644802343.166,-100.098,-44.434,-32.715,-40.527,0.000,0
1644802343.169,-93.262,-47.852,-35.645,-53.223,0.000,0
1644802343.173,-76.660,-41.016,-32.227,-57.617,0.000,0
1644802343.179,-71.289,-33.691,-29.785,-33.203,0.000,0
1644802343.182,-82.031,-36.133,-31.250,-11.719,0.000,0
1644802343.186,-109.863,-35.645,-34.668,-23.926,0.000,0
1644802343.190,-104.492,-36.621,-37.109,-56.641,0.000,0
1644802343.193,-90.332,-36.133,-30.762,-68.359,0.000,0
1644802343.197,-92.285,-37.598,-28.320,-59.570,0.000,0
1644802343.201,-98.633,-39.551,-31.250,-45.898,0.000,0
1644802343.204,-120.605,-34.668,-32.715,-43.945,0.000,0
1644802343.208,-129.883,-43.945,-35.156,-54.688,0.000,0
1644802343.212,-104.980,-47.363,-29.297,-41.504,0.000,0
1644802343.215,-97.656,-37.598,-28.809,-47.852,0.000,0
1644802343.219,-93.262,-37.109,-32.227,-53.711,0.000,0
1644802343.225,-101.074,-45.410,-35.156,-55.176,0.000,0
1644802343.229,-119.141,-50.293,-38.086,-71.777,0.000,0
1644802343.232,-107.910,-50.293,-34.180,-80.566,0.000,0
1644802343.236,-86.914,-42.969,-34.668,-62.012,0.000,0
1644802343.240,-92.773,-36.133,-38.086,-54.688,0.000,0
1644802343.243,-118.164,-36.133,-41.992,-66.406,0.000,0
1644802343.247,-127.930,-40.039,-45.410,-70.312,0.000,0
1644802343.251,-111.816,-41.992,-42.480,-76.660,0.000,0
1644802343.254,-83.008,-37.109,-34.668,-44.434,0.000,0
1644802343.258,-84.961,-32.715,-28.320,-24.414,0.000,0
1644802343.262,-111.328,-32.227,-28.320,-42.969,0.000,0
1644802343.265,-123.047,-38.574,-32.227,-50.293,0.000,0
1644802343.271,-100.586,-39.062,-33.203,-59.082,0.000,0
1644802343.275,-78.613,-35.645,-33.203,-50.781,0.000,0
1644802343.278,-80.566,-32.715,-30.762,-39.062,0.000,0
1644802343.282,-99.121,-37.109,-31.738,-41.016,0.000,0
1644802343.286,-121.094,-45.410,-39.062,-43.457,0.000,0
1644802343.289,-113.770,-46.387,-41.016,-58.105,0.000,0
1644802343.293,-86.914,-40.527,-38.574,-56.641,0.000,0
1644802343.297,-90.820,-40.527,-39.551,-53.711,0.000,0
1644802343.300,-109.863,-39.551,-39.551,-59.570,0.000,0
1644802343.304,-125.488,-41.992,-40.039,-59.082,0.000,0
1644802343.308,-117.676,-45.410,-37.598,-58.105,0.000,0
1644802343.311,-89.355,-45.410,-34.668,-51.758,0.000,0
1644802343.317,-88.867,-42.969,-40.527,-40.039,0.000,0
1644802343.321,-111.328,-38.574,-44.922,-48.340,0.000,0
1644802343.325,-118.652,-46.387,-47.363,-60.547,0.000,0
1644802343.328,-104.492,-52.246,-43.457,-54.688,0.000,0
1644802343.332,-88.867,-43.457,-33.203,-44.434,0.000,0
1644802343.336,-84.473,-39.551,-31.250,-42.480,0.000,0
1644802343.339,-101.074,-41.504,-37.109,-46.875,0.000,0
1644802343.343,-122.070,-44.434,-41.504,-41.016,0.000,0
1644802343.347,-118.652,-43.457,-36.133,-59.082,0.000,0
1644802343.350,-103.516,-33.691,-34.180,-65.430,0.000,0
1644802343.354,-97.168,-35.645,-35.645,-58.105,0.000,0
1644802343.358,-104.980,-44.434,-41.016,-46.875,0.000,0
1644802343.364,-121.094,-45.410,-45.410,-46.875,0.000,0
1644802343.367,-114.258,-42.480,-41.992,-68.848,0.000,0
1644802343.371,-95.703,-36.133,-38.574,-64.453,0.000,0
1644802343.375,-83.984,-33.203,-32.227,-51.758,0.000,0
1644802343.378,-96.191,-30.273,-27.344,-41.504,0.000,0
1644802343.382,-118.652,-31.738,-41.016,-45.410,0.000,0
1644802343.386,-116.211,-36.621,-47.852,-45.898,0.000,0
1644802343.389,-100.586,-37.598,-45.410,-59.082,0.000,0
1644802343.393,-89.844,-34.668,-40.527,-85.449,0.000,1
1644802343.397,-95.215,-38.086,-36.621,-78.613,0.000,0
1644802343.400,-109.375,-46.387,-41.992,-44.434,0.000,0
1644802343.404,-131.348,-47.363,-46.875,-48.340,0.000,0
1644802343.410,-125.488,-41.016,-45.898,-75.684,0.000,0
1644802343.413,-94.238,-33.203,-41.992,-67.871,0.000,0
1644802343.417,-88.867,-39.551,-46.875,-36.133,0.000,0
1644802343.421,-107.910,-42.480,-49.805,-21.484,0.000,0
1644802343.424,-119.141,-38.574,-43.945,-50.781,0.000,0
1644802343.428,-105.469,-37.109,-42.969,-68.359,0.000,0
1644802343.432,-83.984,-33.203,-40.527,-54.688,0.000,0
1644802343.435,-91.309,-35.645,-36.133,-43.457,0.000,0
1644802343.439,-122.559,-36.133,-33.203,-24.902,0.000,0
1644802343.443,-120.605,-36.621,-41.992,-24.902,0.000,0
1644802343.447,-90.332,-39.062,-47.852,-42.480,0.000,0
1644802343.450,-67.871,-31.738,-42.969,-53.711,0.000,0
1644802343.456,-71.777,-25.391,-38.574,-69.336,0.000,0
1644802343.459,-88.867,-33.691,-43.457,-59.082,0.000,0
1644802343.463,-108.398,-39.551,-47.852,-59.082,0.000,0
1644802343.467,-111.328,-39.551,-42.480,-63.965,0.000,0
1644802343.470,-87.891,-34.668,-40.039,-36.133,0.000,0
1644802343.474,-76.660,-30.762,-42.969,-19.531,0.000,0
1644802343.478,-93.262,-31.738,-45.410,-29.785,0.000,0
1644802343.481,-118.164,-36.133,-49.316,-56.641,0.000,0
1644802343.485,-105.957,-37.109,-48.828,-62.500,0.000,0
1644802343.489,-84.961,-39.062,-46.875,-50.293,0.000,0
1644802343.492,-77.637,-36.133,-43.945,-53.711,0.000,0
1644802343.496,-101.074,-36.621,-45.410,-55.176,0.000,0
1644802343.502,-127.441,-41.016,-46.875,-51.758,0.000,0
1644802343.505,-116.699,-42.480,-41.992,-49.316,0.000,0
1644802343.509,-103.027,-37.598,-41.992,-49.316,0.000,0
1644802343.513,-100.586,-23.438,-44.434,-46.875,0.000,0
1644802343.516,-103.516,-23.438,-44.922,-45.410,0.000,0
1644802343.520,-119.141,-34.668,-45.410,-47.363,0.000,0
1644802343.524,-127.930,-36.133,-45.410,-57.617,0.000,0
1644802343.527,-104.004,-30.762,-43.945,-63.477,0.000,0
1644802343.531,-88.867,-30.273,-39.062,-47.363,0.000,0
1644802343.535,-92.773,-28.809,-36.621,-39.551,0.000,0
1644802343.538,-112.305,-35.156,-45.410,-44.434,0.000,0
1644802343.542,-108.887,-38.086,-49.316,-54.199,0.000,0
1644802343.548,-78.125,-33.691,-42.969,-53.223,0.000,0
1644802343.552,-77.148,-33.691,-38.574,-43.457,0.000,0
1644802343.555,-89.844,-27.832,-39.551,-41.016,0.000,0
1644802343.559,-118.164,-27.832,-42.969,-66.895,0.000,0
1644802343.563,-126.465,-40.039,-48.340,-86.426,0.000,0
1644802343.566,-96.680,-43.457,-51.270,-46.875,0.000,0
1644802343.570,-79.102,-32.227,-42.969,-22.949,0.000,0
1644802343.574,-93.750,-32.715,-40.039,-38.086,0.000,0
1644802343.577,-100.586,-40.527,-42.480,-36.133,0.000,0
1644802343.581,-96.191,-38.086,-45.410,-31.250,0.000,0
1644802343.585,-92.773,-26.855,-40.527,-53.711,0.000,0
1644802343.588,-79.590,-29.785,-35.156,-56.641,0.000,0
1644802343.594,-78.125,-34.180,-39.551,-43.457,0.000,0
1644802343.598,-96.680,-32.715,-45.410,-47.852,0.000,0
1644802343.601,-113.770,-28.809,-45.410,-48.828,0.000,0
1644802343.605,-103.027,-25.879,-43.457,-44.922,0.000,0
1644802343.609,-73.242,-32.227,-41.504,-43.945,0.000,0
1644802343.612,-82.031,-33.691,-43.457,-40.527,0.000,0
1644802343.616,-106.445,-33.203,-53.223,-42.969,0.000,0
1644802343.620,-113.770,-41.504,-61.523,-54.199,0.000,0
1644802343.623,-95.703,-39.062,-54.199,-47.363,0.000,0
1644802343.627,-76.660,-27.344,-47.852,-31.738,0.000,0
1644802343.631,-80.566,-26.367,-45.410,-34.668,0.000,0
1644802343.634,-92.285,-33.691,-47.852,-41.504,0.000,0
1644802343.640,-110.840,-32.227,-54.688,-51.270,0.000,0
1644802343.644,-107.422,-30.762,-48.340,-50.781,0.000,0
1644802343.648,-87.402,-27.832,-40.039,-41.504,0.000,0
1644802343.651,-83.984,-28.809,-38.574,-43.457,0.000,0
1644802343.655,-96.680,-33.203,-42.480,-44.434,0.000,0
1644802343.659,-109.375,-35.156,-42.480,-39.062,0.000,0
1644802343.662,-115.234,-33.691,-40.527,-63.965,0.000,0
1644802343.666,-100.098,-31.738,-44.922,-67.383,0.000,0
1644802343.670,-85.938,-36.133,-47.363,-44.922,0.000,0
1644802343.673,-99.609,-30.762,-43.457,-69.824,0.000,0
1644802343.677,-118.164,-32.715,-40.039,-65.918,0.000,0
1644802343.681,-118.652,-34.180,-35.156,-47.852,0.000,0
1644802343.686,-102.051,-28.809,-35.156,-49.805,0.000,0
1644802343.690,-88.867,-26.855,-38.086,-49.805,0.000,0
1644802343.694,-104.980,-26.855,-37.598,-55.176,0.000,0
1644802343.697,-124.023,-29.297,-36.133,-38.574,0.000,0
1644802343.701,-110.840,-32.715,-32.227,-42.480,0.000,0
1644802343.705,-84.961,-36.133,-31.250,-58.594,0.000,0
1644802343.708,-75.684,-37.109,-30.762,-49.805,0.000,0
1644802343.712,-80.078,-32.227,-35.645,-42.969,0.000,0
1644802343.716,-101.074,-26.367,-41.016,-52.734,0.000,0
1644802343.719,-112.305,-24.902,-37.598,-64.941,0.000,0
1644802343.723,-96.191,-25.879,-37.598,-57.617,0.000,0
1644802343.727,-82.520,-26.855,-33.691,-23.438,0.000,0
1644802343.733,-84.473,-24.414,-31.250,-34.668,0.000,0
1644802343.736,-98.633,-26.367,-33.691,-54.688,0.000,0
1644802343.740,-104.004,-32.715,-34.180,-56.641,0.000,0
1644802343.744,-89.844,-34.668,-32.227,-62.500,0.000,0
1644802343.747,-73.242,-31.250,-21.973,-45.898,0.000,0
1644802343.751,-76.172,-30.273,-23.926,-38.574,0.000,0
1644802343.755,-94.727,-37.109,-29.785,-26.855,0.000,0
1644802343.758,-117.188,-44.922,-30.273,-39.062,0.000,0
1644802343.762,-109.375,-36.133,-23.438,-69.824,0.000,0
1644802343.766,-82.031,-27.344,-19.043,-53.711,0.000,0
1644802343.769,-88.379,-27.832,-26.367,-28.320,0.000,0
1644802343.773,-108.398,-29.785,-31.250,-23.438,0.000,0
1644802343.780,-123.047,-26.367,-28.809,-44.922,0.000,0
1644802343.783,-96.680,-26.367,-24.414,-52.734,0.000,0
1644802343.787,-60.059,-25.879,-27.344,-39.551,0.000,0
1644802343.791,-67.383,-23.926,-23.926,-38.574,0.000,0
1644802343.794,-84.473,-29.297,-19.531,-41.504,0.000,0
1644802343.798,-93.750,-32.715,-27.832,-56.152,0.000,0
1644802343.802,-87.402,-30.762,-32.227,-68.848,0.000,0
1644802343.805,-78.613,-31.250,-29.297,-41.504,0.000,0
1644802343.809,-83.008,-27.832,-27.832,-26.367,0.000,0
1644802343.813,-89.844,-31.738,-32.715,-22.461,0.000,0
1644802343.816,-92.285,-41.992,-34.668,-8.301,0.000,0
1644802343.820,-96.680,-28.320,-24.902,-34.668,0.000,0
1644802343.826,-77.148,-17.578,-18.066,-47.363,0.000,0
1644802343.829,-74.707,-20.508,-20.996,-25.879,0.000,0
1644802343.833,-98.145,-15.137,-25.879,-23.438,0.000,0
1644802343.837,-114.746,-17.090,-31.250,-38.574,0.000,0
1644802343.841,-109.863,-23.438,-28.809,-57.617,0.000,0
1644802343.844,-80.566,-23.926,-21.484,-52.246,0.000,0
1644802343.848,-77.148,-21.484,-27.344,-40.039,0.000,0
1644802343.852,-101.562,-18.066,-28.809,-46.875,0.000,0
1644802343.855,-124.023,-23.926,-26.855,-49.805,0.000,0
1644802343.859,-113.770,-37.109,-27.832,-45.410,0.000,0
1644802343.863,-91.797,-35.645,-22.949,-44.434,0.000,0
1644802343.866,-83.496,-22.949,-18.555,-48.828,0.000,0
1644802343.872,-80.566,-24.414,-25.879,-43.457,0.000,0
1644802343.876,-105.469,-35.645,-35.156,-41.992,0.000,0
1644802343.880,-112.793,-31.738,-33.203,-47.363,0.000,0
1644802343.883,-81.055,-20.020,-28.809,-43.457,0.000,0
1644802343.887,-70.801,-20.996,-26.367,-33.203,0.000,0
1644802343.891,-73.242,-33.203,-20.508,-27.832,0.000,0
1644802343.894,-82.031,-40.039,-22.461,-32.227,0.000,0
1644802343.898,-102.051,-33.691,-21.973,-51.270,0.000,0
1644802343.902,-91.309,-30.273,-19.531,-63.965,0.000,0
1644802343.905,-77.637,-27.344,-25.391,-32.715,0.000,0
1644802343.909,-91.309,-25.879,-27.344,-26.367,0.000,0
1644802343.913,-104.492,-29.785,-30.273,-39.062,0.000,0
1644802343.919,-111.328,-38.574,-40.039,-46.387,0.000,0
1644802343.922,-102.539,-42.969,-41.016,-51.758,0.000,0
1644802343.926,-86.426,-33.691,-29.297,-47.852,0.000,0
1644802343.930,-80.078,-34.180,-26.855,-45.410,0.000,0
1644802343.933,-98.633,-44.434,-30.762,-36.621,0.000,0
1644802343.937,-110.352,-42.480,-32.715,-51.270,0.000,0
1644802343.941,-87.402,-32.227,-29.785,-57.617,0.000,0
1644802343.944,-72.754,-26.855,-28.320,-45.898,0.000,0
1644802343.948,-73.242,-34.180,-35.156,-47.852,0.000,0
1644802343.952,-92.285,-40.039,-36.133,-42.969,0.000,0
1644802343.955,-119.141,-40.039,-32.715,-54.688,0.000,0
1644802343.959,-112.793,-38.574,-31.738,-71.777,0.000,0
1644802343.965,-74.219,-37.598,-32.227,-57.129,0.000,0
1644802343.968,-65.430,-35.156,-29.297,-38.574,0.000,0
1644802343.972,-94.238,-31.250,-29.297,-41.016,0.000,0
1644802343.976,-104.004,-36.621,-33.691,-47.363,0.000,0
1644802343.979,-92.285,-39.062,-31.250,-57.617,0.000,0
1644802343.983,-87.891,-38.574,-29.297,-60.547,0.000,0
1644802343.987,-83.008,-41.992,-32.715,-59.082,0.000,0
1644802343.991,-82.520,-41.016,-37.109,-56.152,0.000,0
1644802343.994,-112.793,-45.410,-35.156,-75.195,0.000,0
1644802343.998,-117.188,-40.039,-28.809,-85.449,0.000,0
1644802344.002,-98.633,-28.809,-28.320,-62.500,0.000,0
1644802344.005,-94.238,-32.715,-29.785,-51.758,0.000,0
1644802344.011,-91.309,-34.180,-32.715,-44.922,0.000,0
1644802344.015,-103.027,-34.668,-35.645,-40.039,0.000,0
1644802344.019,-103.516,-36.133,-28.809,-44.434,0.000,0
1644802344.023,-86.426,-34.668,-21.973,-54.199,0.000,0
1644802344.026,-79.590,-30.762,-29.785,-52.246,0.000,0
1644802344.030,-83.984,-31.250,-38.574,-48.828,0.000,0
1644802344.034,-99.121,-31.738,-36.133,-44.922,0.000,0
1644802344.037,-105.469,-33.203,-34.180,-39.062,0.000,0
1644802344.041,-89.844,-28.320,-31.250,-33.203,0.000,0
1644802344.045,-87.402,-18.555,-21.973,-51.270,0.000,0
1644802344.048,-97.656,-24.902,-26.855,-66.406,0.000,0
1644802344.052,-116.211,-34.180,-33.691,-52.246,0.000,0
1644802344.058,-122.559,-33.203,-30.273,-41.504,0.000,0
1644802344.061,-97.168,-25.391,-25.391,-37.109,0.000,0
1644802344.065,-77.148,-23.926,-20.508,-27.344,0.000,0
1644802344.069,-85.938,-28.809,-21.484,-31.738,0.000,0
1644802344.072,-105.957,-31.250,-25.879,-36.133,0.000,0
1644802344.076,-105.469,-35.645,-24.414,-34.180,0.000,0
1644802344.080,-83.496,-35.645,-23.438,-41.992,0.000,0
1644802344.083,-71.289,-32.715,-25.391,-35.156,0.000,0
1644802344.087,-74.707,-26.367,-25.391,-29.785,0.000,0
1644802344.091,-89.844,-25.879,-30.762,-41.504,0.000,0
1644802344.094,-103.027,-40.039,-38.574,-62.012,0.000,0
1644802344.098,-93.262,-39.062,-32.227,-66.406,0.000,0
1644802344.104,-89.355,-26.855,-27.832,-59.082,0.000,0
1644802344.108,-89.355,-30.762,-31.738,-52.734,0.000,0
1644802344.112,-91.309,-37.109,-32.227,-28.320,0.000,0
1644802344.115,-106.934,-40.039,-31.250,-34.180,0.000,0
1644802344.119,-103.516,-38.086,-30.762,-64.941,0.000,0
1644802344.123,-82.031,-34.668,-35.156,-56.641,0.000,0
1644802344.126,-84.961,-33.691,-40.039,-39.551,0.000,0
1644802344.130,-103.027,-39.551,-38.574,-39.062,0.000,0
1644802344.134,-118.164,-37.598,-37.598,-49.805,0.000,0
1644802344.137,-107.910,-36.133,-38.574,-56.152,0.000,0
1644802344.141,-83.496,-41.016,-35.645,-42.480,0.000,0
1644802344.145,-91.309,-34.180,-32.227,-33.203,0.000,0
1644802344.150,-116.699,-30.762,-31.738,-47.852,0.000,0
1644802344.154,-123.047,-45.410,-41.016,-62.500,0.000,0
1644802344.158,-106.445,-42.480,-40.527,-70.312,0.000,0
1644802344.161,-91.797,-28.809,-26.367,-61.035,0.000,0
1644802344.165,-100.098,-35.645,-28.320,-51.758,0.000,0
1644802344.169,-103.516,-39.551,-42.480,-36.621,0.000,0
1644802344.172,-117.188,-40.527,-49.316,-32.715,0.000,0
1644802344.176,-118.164,-41.504,-42.480,-40.527,0.000,0
1644802344.180,-94.238,-29.785,-33.203,-50.781,0.000,0
1644802344.184,-82.520,-23.926,-30.762,-39.062,0.000,1
1644802344.187,-84.961,-31.250,-36.621,-28.809,0.000,0
1644802344.191,-104.492,-34.180,-39.551,-47.363,0.000,0
1644802344.197,-107.422,-36.133,-35.156,-72.754,0.000,0
1644802344.200,-84.961,-38.086,-38.086,-63.965,0.000,0
1644802344.204,-68.848,-36.133,-42.969,-63.477,0.000,0
1644802344.208,-90.332,-35.156,-39.062,-76.172,0.000,0
1644802344.211,-115.234,-35.645,-38.574,-46.387,0.000,0
1644802344.215,-110.840,-37.109,-36.133,-27.832,0.000,0
1644802344.219,-96.191,-38.574,-32.227,-41.504,0.000,0
1644802344.223,-86.914,-30.273,-27.344,-47.363,0.000,0
1644802344.226,-86.914,-28.320,-27.344,-49.316,0.000,0
1644802344.230,-90.820,-36.621,-34.668,-34.180,0.000,0
1644802344.234,-106.934,-40.039,-37.598,-31.250,0.000,0
1644802344.237,-98.145,-31.738,-34.668,-42.480,0.000,0
1644802344.244,-71.289,-29.785,-31.250,-37.598,0.000,0
1644802344.247,-77.637,-35.156,-35.156,-23.926,0.000,0
1644802344.251,-106.934,-39.062,-35.156,-15.137,0.000,0
1644802344.255,-119.141,-39.551,-28.320,-46.387,0.000,0
1644802344.258,-101.562,-36.621,-30.273,-68.848,0.000,0
1644802344.262,-76.172,-35.645,-37.598,-63.477,0.000,0
1644802344.266,-76.172,-31.738,-42.480,-47.363,0.000,0
1644802344.269,-96.680,-29.297,-40.527,-33.691,0.000,0
1644802344.273,-102.539,-34.180,-39.551,-37.109,0.000,0
1644802344.277,-84.473,-32.715,-37.109,-35.645,0.000,0
1644802344.281,-83.008,-29.297,-34.668,-28.320,0.000,0
1644802344.284,-88.867,-24.414,-33.203,-46.387,0.000,0
1644802344.290,-86.426,-22.949,-31.738,-46.387,0.000,0
1644802344.294,-113.770,-29.785,-36.133,-41.016,0.000,0
1644802344.297,-113.770,-29.785,-39.551,-55.176,0.000,0
1644802344.301,-77.637,-23.926,-36.133,-56.641,0.000,0
1644802344.305,-80.566,-23.438,-37.109,-40.039,0.000,0
1644802344.308,-89.844,-28.320,-42.969,-35.156,0.000,0
1644802344.312,-107.910,-36.133,-50.293,-42.969,0.000,0
1644802344.316,-115.723,-34.668,-54.688,-53.223,0.000,0
1644802344.319,-89.844,-32.715,-51.270,-61.035,0.000,0
1644802344.323,-77.637,-31.250,-47.852,-55.176,0.000,0
1644802344.327,-102.051,-32.227,-48.340,-56.152,0.000,0
1644802344.331,-121.582,-37.598,-49.316,-53.711,0.000,0
1644802344.337,-108.398,-34.668,-52.246,-47.363,0.000,0
1644802344.340,-88.867,-28.809,-51.270,-41.016,0.000,0
1644802344.344,-74.219,-26.855,-45.898,-40.527,0.000,0
1644802344.348,-94.727,-31.250,-43.945,-50.293,0.000,0
1644802344.351,-128.906,-40.527,-47.852,-55.176,0.000,0
1644802344.355,-121.094,-42.480,-46.875,-60.059,0.000,0
1644802344.359,-83.984,-33.203,-43.457,-52.734,0.000,0
1644802344.363,-79.102,-28.809,-37.598,-35.645,0.000,0
1644802344.366,-99.121,-31.738,-35.156,-38.086,0.000,0
1644802344.370,-110.352,-33.203,-41.504,-57.129,0.000,0
1644802344.374,-121.582,-34.180,-46.875,-77.637,0.000,0
1644802344.377,-94.727,-34.668,-50.293,-64.453,0.000,0
1644802344.383,-73.242,-32.715,-47.363,-41.504,0.000,0
1644802344.387,-83.008,-30.273,-47.852,-39.062,0.000,0
1644802344.390,-100.098,-32.227,-50.293,-37.598,0.000,0
1644802344.394,-95.703,-36.621,-49.805,-42.969,0.000,0
1644802344.398,-76.660,-29.297,-46.875,-67.871,0.000,0
1644802344.401,-78.613,-24.414,-38.086,-55.176,0.000,0
1644802344.405,-88.867,-27.344,-31.250,-24.414,0.000,0
1644802344.409,-99.121,-30.273,-36.133,-27.344,0.000,0
1644802344.412,-108.398,-33.203,-44.434,-40.039,0.000,0
1644802344.416,-104.492,-32.715,-45.898,-49.316,0.000,0
1644802344.420,-82.520,-30.762,-38.574,-48.340,0.000,0
1644802344.424,-85.938,-35.645,-42.480,-25.391,0.000,0
1644802344.429,-97.656,-39.062,-46.387,-15.137,0.000,0
1644802344.433,-102.051,-38.574,-41.992,-45.898,0.000,0
1644802344.437,-101.562,-35.645,-40.527,-71.777,0.000,0
1644802344.441,-74.219,-33.691,-36.133,-47.852,0.000,0
1644802344.444,-63.477,-32.715,-32.715,-25.879,0.000,0
1644802344.448,-99.121,-39.062,-33.691,-50.781,0.000,0
1644802344.452,-121.094,-43.457,-39.551,-55.664,0.000,0
1644802344.455,-106.445,-41.016,-41.992,-43.457,0.000,0
1644802344.459,-79.590,-32.715,-45.410,-47.363,0.000,0
1644802344.463,-78.125,-26.855,-49.316,-48.828,0.000,0
1644802344.466,-91.797,-33.203,-47.363,-41.504,0.000,0
1644802344.470,-106.934,-33.691,-45.410,-38.574,0.000,0
1644802344.476,-110.840,-35.156,-40.527,-45.410,0.000,0
1644802344.479,-87.402,-35.156,-35.156,-44.434,0.000,0
1644802344.483,-68.848,-34.668,-33.691,-24.902,0.000,0
1644802344.487,-91.797,-34.668,-40.527,-30.762,0.000,0
1644802344.490,-108.887,-34.668,-47.852,-62.012,0.000,0
1644802344.494,-94.238,-34.668,-43.457,-69.824,0.000,0
1644802344.498,-76.660,-33.691,-35.156,-64.453,0.000,0
1644802344.501,-66.406,-31.738,-35.156,-47.852,0.000,0
1644802344.505,-90.332,-29.297,-37.598,-41.504,0.000,0
1644802344.509,-104.492,-33.203,-38.086,-46.875,0.000,0
1644802344.513,-95.215,-42.969,-44.922,-44.434,0.000,0
1644802344.516,-91.309,-43.457,-49.805,-56.152,0.000,0
1644802344.522,-78.613,-31.250,-43.457,-50.293,0.000,0
1644802344.526,-74.219,-33.203,-42.969,-39.551,0.000,0
1644802344.529,-105.957,-41.992,-49.805,-55.664,0.000,0
1644802344.533,-132.324,-46.387,-56.641,-61.035,0.000,0
1644802344.537,-107.910,-43.457,-46.875,-49.316,0.000,0
1644802344.541,-82.031,-37.109,-35.156,-31.738,0.000,0
1644802344.544,-80.078,-41.992,-37.598,-23.438,0.000,0
1644802344.548,-100.586,-44.434,-42.480,-29.297,0.000,0
1644802344.552,-115.234,-42.969,-44.434,-50.781,0.000,0
1644802344.555,-100.586,-41.504,-43.945,-48.340,0.000,0
1644802344.559,-81.055,-31.250,-40.039,-34.180,0.000,0
1644802344.563,-87.891,-32.227,-40.527,-41.504,0.000,0
1644802344.569,-113.770,-38.086,-43.457,-50.781,0.000,0
1644802344.572,-110.352,-41.016,-39.551,-48.340,0.000,0
1644802344.576,-84.961,-41.992,-29.785,-35.645,0.000,0
1644802344.580,-71.777,-37.109,-33.203,-29.785,0.000,0
1644802344.584,-85.449,-32.715,-43.457,-45.898,0.000,0
1644802344.587,-98.145,-37.598,-41.504,-33.203,0.000,0
1644802344.591,-103.027,-43.945,-44.922,-37.109,0.000,0
1644802344.595,-92.773,-41.992,-43.457,-66.895,0.000,0
1644802344.598,-83.496,-34.668,-38.086,-58.594,0.000,0
1644802344.602,-94.238,-36.133,-40.039,-37.598,0.000,0
1644802344.606,-97.168,-43.457,-38.574,-27.832,0.000,0
1644802344.609,-110.352,-40.527,-37.109,-41.504,0.000,0
1644802344.615,-106.445,-34.668,-37.109,-54.199,0.000,0
1644802344.619,-95.215,-34.668,-41.992,-48.828,0.000,0
1644802344.622,-98.145,-35.645,-42.969,-38.086,0.000,0
1644802344.626,-99.609,-34.180,-38.574,-34.180,0.000,0
1644802344.630,-107.422,-40.039,-38.574,-29.785,0.000,0
1644802344.634,-95.215,-42.480,-33.691,-29.297,0.000,0
1644802344.637,-72.754,-39.062,-33.203,-33.691,0.000,0
1644802344.641,-77.637,-34.180,-34.180,-24.414,0.000,0
1644802344.645,-94.727,-38.574,-34.180,-32.227,0.000,0
1644802344.648,-103.516,-41.992,-42.480,-56.641,0.000,0
1644802344.652,-96.191,-34.668,-41.992,-61.523,0.000,0
1644802344.656,-85.449,-28.320,-38.574,-45.898,0.000,0
1644802344.662,-85.449,-27.832,-32.227,-34.668,0.000,0
1644802344.665,-94.238,-37.598,-31.250,-23.438,0.000,0
1644802344.669,-109.863,-41.504,-36.133,-32.227,0.000,0
1644802344.673,-112.793,-35.645,-40.527,-46.875,0.000,0
1644802344.677,-83.984,-32.227,-35.645,-45.410,0.000,0
1644802344.680,-66.406,-33.203,-29.785,-28.809,0.000,0
1644802344.684,-91.797,-33.691,-35.645,-29.785,0.000,0
1644802344.688,-115.234,-36.621,-43.945,-41.016,0.000,0
1644802344.691,-101.562,-42.969,-47.852,-34.180,0.000,0
1644802344.695,-80.566,-45.410,-42.480,-25.391,0.000,0
1644802344.699,-71.777,-33.691,-34.668,-26.855,0.000,0
1644802344.702,-67.383,-20.508,-29.785,-16.602,0.000,0
1644802344.709,-85.938,-20.996,-33.203,-22.949,0.000,0
1644802344.713,-96.680,-28.809,-40.039,-55.176,0.000,0
1644802344.716,-67.383,-31.250,-36.133,-77.637,0.000,0
1644802344.720,-57.129,-31.250,-27.832,-53.223,0.000,0
1644802344.724,-74.219,-30.273,-36.133,-30.762,0.000,0
1644802344.727,-93.262,-35.156,-49.316,-52.734,0.000,0
1644802344.731,-101.562,-38.574,-48.340,-49.316,0.000,0
1644802344.735,-84.961,-36.621,-44.922,-51.758,0.000,0
1644802344.738,-81.055,-37.109,-46.387,-61.523,0.000,0
1644802344.742,-84.961,-33.691,-46.387,-53.711,0.000,0
1644802344.746,-98.145,-35.645,-48.340,-56.152,0.000,0
1644802344.750,-111.328,-41.504,-50.293,-59.082,0.000,0
1644802344.755,-88.379,-48.340,-42.969,-65.430,0.000,0
1644802344.759,-83.008,-36.621,-36.133,-57.617,0.000,0
1644802344.763,-85.449,-24.902,-32.715,-38.574,0.000,0
1644802344.767,-93.750,-34.668,-33.691,-40.039,0.000,0
1644802344.770,-105.957,-35.156,-37.109,-42.480,0.000,0
1644802344.774,-92.773,-28.320,-38.086,-46.875,0.000,0
1644802344.778,-85.938,-28.320,-36.621,-47.363,0.000,0
1644802344.781,-91.309,-31.738,-35.156,-29.785,0.000,0
1644802344.785,-110.840,-35.156,-36.133,-34.668,0.000,0
1644802344.789,-123.535,-34.668,-32.715,-55.176,0.000,0
1644802344.792,-109.375,-36.621,-34.180,-67.383,0.000,0
1644802344.796,-88.867,-32.715,-31.738,-52.734,0.000,0
1644802344.802,-84.473,-24.902,-20.020,-32.227,0.000,0
1644802344.806,-108.398,-30.273,-24.414,-36.133,0.000,0
1644802344.810,-125.977,-41.504,-34.180,-45.898,0.000,0
1644802344.814,-107.910,-47.852,-29.785,-60.059,0.000,0
1644802344.817,-83.008,-38.086,-24.902,-63.965,0.000,0
1644802344.821,-88.379,-32.227,-28.320,-60.059,0.000,0
1644802344.825,-102.051,-36.621,-34.668,-44.434,0.000,0
1644802344.828,-108.887,-41.504,-36.133,-26.367,0.000,0
1644802344.832,-110.352,-38.574,-27.344,-53.223,0.000,0
1644802344.836,-102.539,-32.715,-20.996,-78.125,0.000,0
1644802344.840,-86.426,-35.156,-26.367,-52.734,0.000,0
1644802344.843,-101.074,-38.086,-30.273,-41.992,0.000,0
1644802344.849,-128.906,-35.156,-32.227,-50.781,0.000,0
1644802344.853,-110.840,-33.203,-36.621,-67.383,0.000,0
1644802344.856,-83.984,-32.715,-33.203,-64.941,0.000,0
1644802344.860,-86.426,-32.227,-27.832,-48.340,0.000,0
1644802344.864,-93.262,-34.668,-31.250,-44.922,0.000,0
1644802344.868,-112.305,-41.504,-40.039,-51.758,0.000,0
1644802344.871,-125.488,-48.340,-43.945,-59.082,0.000,0
1644802344.875,-98.633,-42.969,-41.504,-59.082,0.000,0
1644802344.879,-89.355,-34.668,-34.668,-52.734,0.000,0
1644802344.882,-96.680,-34.180,-33.203,-51.758,0.000,0
1644802344.886,-110.840,-41.016,-39.551,-49.316,0.000,0
1644802344.890,-122.559,-39.551,-37.598,-45.410,0.000,0
1644802344.895,-107.422,-30.273,-31.738,-57.617,0.000,0
1644802344.899,-88.379,-27.832,-33.203,-56.152,0.000,0
1644802344.903,-89.844,-35.645,-34.180,-48.340,0.000,0
1644802344.907,-109.375,-38.574,-32.715,-44.922,0.000,0
1644802344.910,-111.816,-37.109,-31.738,-41.016,0.000,1
1644802344.914,-89.844,-29.297,-32.715,-38.574,0.000,0
1644802344.918,-75.195,-30.273,-33.203,-30.273,0.000,0
1644802344.921,-86.426,-34.668,-33.691,-27.832,0.000,0
1644802344.925,-109.375,-31.250,-39.551,-32.715,0.000,0
1644802344.929,-105.957,-34.180,-44.922,-34.180,0.000,0
1644802344.933,-85.938,-38.086,-37.109,-41.016,0.000,0
1644802344.936,-78.613,-32.715,-23.438,-61.035,0.000,0
1644802344.942,-80.078,-26.855,-22.949,-55.176,0.000,0
1644802344.945,-93.262,-32.227,-27.832,-37.109,0.000,0
1644802344.949,-103.027,-33.691,-29.297,-35.156,0.000,0
1644802344.953,-100.098,-30.273,-35.156,-52.734,0.000,0
1644802344.956,-89.844,-28.809,-33.691,-49.316,0.000,0
1644802344.960,-79.102,-26.855,-29.297,-28.320,0.000,0
1644802344.964,-90.820,-24.414,-34.668,-32.715,0.000,0
1644802344.968,-104.980,-29.785,-39.062,-33.691,0.000,0
1644802344.971,-96.680,-37.598,-39.062,-37.109,0.000,0
1644802344.975,-73.730,-36.133,-32.715,-31.738,0.000,0
1644802344.979,-73.242,-35.156,-25.391,-22.949,0.000,0
1644802344.982,-85.449,-37.109,-27.832,-28.809,0.000,0
1644802344.988,-95.215,-36.133,-37.598,-35.645,0.000,0
1644802344.992,-107.422,-37.598,-39.551,-45.410,0.000,0
1644802344.996,-85.938,-36.133,-36.133,-55.664,0.000,0
1644802344.999,-71.289,-26.367,-28.809,-50.293,0.000,0
1644802345.003,-80.566,-24.902,-30.762,-32.715,0.000,0
1644802345.007,-96.680,-31.250,-36.621,-25.391,0.000,0
1644802345.010,-108.398,-35.156,-37.598,-55.176,0.000,0
1644802345.014,-88.379,-29.297,-35.156,-63.965,0.000,0
1644802345.018,-74.707,-27.344,-31.738,-52.246,0.000,0
1644802345.021,-83.984,-32.227,-36.133,-59.570,0.000,0
1644802345.025,-91.797,-32.227,-39.551,-55.176,0.000,0
1644802345.029,-98.145,-30.762,-39.062,-56.641,0.000,0
1644802345.035,-82.031,-30.273,-36.621,-60.059,0.000,0
1644802345.039,-67.871,-36.133,-36.133,-49.805,0.000,0
1644802345.042,-78.125,-33.691,-33.691,-49.805,0.000,0
1644802345.046,-104.980,-30.273,-37.109,-53.711,0.000,0
1644802345.050,-113.770,-42.969,-42.480,-57.617,0.000,0
1644802345.054,-92.285,-47.363,-33.691,-55.176,0.000,0
1644802345.057,-85.938,-36.621,-30.762,-42.969,0.000,0
1644802345.061,-98.633,-35.156,-36.621,-40.527,0.000,0
1644802345.065,-101.562,-42.969,-39.062,-38.086,0.000,0
1644802345.068,-93.262,-41.504,-34.668,-35.156,0.000,0
1644802345.072,-89.844,-29.785,-27.832,-50.781,0.000,0
1644802345.076,-82.031,-26.855,-30.273,-58.105,0.000,0
1644802345.081,-90.332,-33.691,-36.133,-47.852,0.000,0
1644802345.085,-115.723,-37.598,-36.133,-33.203,0.000,0
1644802345.089,-126.953,-39.551,-37.109,-48.340,0.000,0
1644802345.093,-104.980,-41.016,-37.598,-62.988,0.000,0
1644802345.096,-76.660,-40.039,-28.809,-56.641,0.000,0
1644802345.100,-83.496,-41.016,-19.043,-49.805,0.000,0
1644802345.104,-105.469,-38.574,-24.414,-49.805,0.000,0
1644802345.107,-120.605,-39.551,-34.180,-60.059,0.000,0
1644802345.111,-116.699,-39.062,-29.297,-69.824,0.000,0
1644802345.115,-104.004,-33.203,-27.832,-55.664,0.000,0
1644802345.119,-91.797,-34.668,-29.297,-32.227,0.000,0
1644802345.122,-102.539,-35.156,-27.344,-27.832,0.000,0
1644802345.128,-120.605,-29.297,-30.762,-33.203,0.000,0
1644802345.132,-107.422,-25.879,-26.855,-44.434,0.000,0
1644802345.135,-86.426,-25.391,-20.020,-35.156,0.000,0
1644802345.139,-69.824,-26.367,-25.879,-7.812,0.000,0
1644802345.143,-76.660,-31.250,-28.320,-6.348,0.000,0
1644802345.147,-109.863,-33.203,-30.273,-39.062,0.000,0
1644802345.150,-110.352,-32.227,-38.086,-55.664,0.000,0
1644802345.154,-86.426,-34.180,-39.551,-59.570,0.000,0
1644802345.158,-80.566,-29.297,-40.039,-61.523,0.000,0
1644802345.161,-91.309,-26.367,-39.551,-54.199,0.000,0
1644802345.165,-114.746,-37.598,-39.062,-36.133,0.000,0
1644802345.169,-117.676,-36.621,-39.551,-44.922,0.000,0
1644802345.174,-93.750,-30.762,-33.691,-69.336,0.000,0
1644802345.178,-75.684,-28.320,-35.156,-61.523,0.000,0
1644802345.182,-84.473,-22.949,-38.574,-42.969,0.000,0
1644802345.185,-114.746,-24.902,-41.992,-39.551,0.000,0
1644802345.189,-125.488,-28.320,-44.922,-60.059,0.000,0
1644802345.193,-103.027,-30.762,-38.574,-67.871,0.000,0
1644802345.197,-88.379,-32.715,-37.109,-55.664,0.000,0
1644802345.200,-102.539,-37.109,-38.574,-40.039,0.000,0
1644802345.204,-118.652,-37.598,-37.598,-47.852,0.000,0
1644802345.208,-125.977,-35.645,-38.574,-60.547,0.000,0
1644802345.211,-112.305,-33.691,-34.180,-55.664,0.000,0
1644802345.215,-86.914,-33.691,-32.715,-43.457,0.000,0
1644802345.221,-93.750,-29.297,-39.062,-52.734,0.000,0
1644802345.225,-125.488,-30.762,-39.551,-69.336,0.000,0
1644802345.228,-133.301,-41.016,-35.645,-57.129,0.000,0
1644802345.232,-111.816,-39.551,-28.809,-48.340,0.000,0
1644802345.236,-97.656,-32.715,-30.273,-55.664,0.000,0
1644802345.239,-96.191,-38.574,-38.086,-56.641,0.000,0
1644802345.243,-105.957,-41.016,-35.645,-41.504,0.000,0
1644802345.247,-115.723,-38.574,-33.203,-35.156,0.000,0
1644802345.251,-106.934,-31.250,-31.250,-54.688,0.000,0
1644802345.254,-96.191,-25.879,-30.273,-51.758,0.000,0
1644802345.258,-85.938,-31.250,-37.598,-46.387,0.000,0
1644802345.262,-87.402,-36.133,-41.016,-41.992,0.000,0
1644802345.267,-106.445,-30.762,-41.504,-40.039,0.000,0
1644802345.271,-101.562,-29.785,-41.016,-50.781,0.000,0
1644802345.275,-73.730,-35.156,-40.527,-47.852,0.000,0
1644802345.278,-62.988,-32.715,-41.504,-38.086,0.000,0
1644802345.282,-78.125,-28.320,-39.551,-27.344,0.000,0
1644802345.286,-100.586,-36.133,-34.180,-33.203,0.000,0
1644802345.289,-102.051,-41.016,-32.715,-50.781,0.000,0
1644802345.293,-85.449,-32.227,-36.621,-52.734,0.000,0
1644802345.297,-76.172,-27.832,-35.645,-44.434,0.000,0
1644802345.301,-88.379,-31.250,-33.691,-32.227,0.000,0
1644802345.304,-114.258,-45.410,-35.156,-36.621,0.000,0
1644802345.308,-114.746,-44.434,-42.480,-68.848,0.000,0
1644802345.313,-94.238,-32.715,-47.852,-74.219,0.000,0
1644802345.317,-79.102,-33.203,-45.898,-50.781,0.000,0
1644802345.321,-89.844,-38.574,-41.504,-47.852,0.000,0
1644802345.325,-124.512,-40.527,-37.598,-45.898,0.000,0
1644802345.328,-123.047,-37.598,-39.062,-56.152,0.000,0
1644802345.332,-82.031,-38.086,-43.457,-64.453,0.000,0
1644802345.336,-77.148,-35.645,-40.527,-48.340,0.000,0
1644802345.339,-100.098,-31.250,-39.551,-54.688,0.000,0
1644802345.343,-116.211,-36.133,-43.457,-67.871,0.000,0
1644802345.347,-109.375,-38.574,-40.039,-61.035,0.000,0
1644802345.351,-92.285,-32.227,-37.109,-53.223,0.000,0
1644802345.354,-92.285,-21.484,-34.668,-45.410,0.000,0
1644802345.360,-102.051,-29.297,-39.551,-58.105,0.000,0
1644802345.364,-113.770,-40.039,-42.480,-53.711,0.000,0
1644802345.368,-113.281,-37.109,-37.109,-44.434,0.000,0
1644802345.371,-85.449,-31.738,-33.203,-64.453,0.000,0
1644802345.375,-76.172,-24.902,-37.598,-62.988,0.000,0
1644802345.379,-88.379,-24.414,-40.039,-38.574,0.000,0
1644802345.382,-99.609,-30.273,-39.551,-31.738,0.000,0
1644802345.386,-112.305,-29.297,-41.016,-46.387,0.000,0
1644802345.390,-100.586,-27.344,-35.156,-51.758,0.000,0
1644802345.394,-76.660,-22.461,-29.785,-41.992,0.000,0
1644802345.397,-76.172,-20.996,-31.738,-47.363,0.000,0
1644802345.401,-101.074,-28.809,-38.574,-48.340,0.000,0
1644802345.407,-104.004,-34.180,-38.574,-30.273,0.000,0
1644802345.410,-80.078,-31.738,-38.574,-42.480,0.000,0
1644802345.414,-76.172,-27.832,-45.898,-46.875,0.000,0
1644802345.418,-84.473,-32.715,-47.363,-44.922,0.000,0
1644802345.422,-102.051,-40.527,-45.410,-48.828,0.000,0
1644802345.425,-113.281,-41.992,-44.922,-45.410,0.000,0
1644802345.429,-95.215,-39.551,-46.387,-55.176,0.000,0
1644802345.433,-77.148,-33.203,-39.551,-38.086,0.000,0
1644802345.436,-77.148,-32.227,-33.691,-21.973,0.000,0
1644802345.440,-82.520,-34.668,-38.574,-20.020,0.000,0
1644802345.444,-100.098,-37.598,-43.945,-26.855,0.000,0
1644802345.448,-96.191,-33.203,-39.551,-56.641,0.000,0
1644802345.453,-77.637,-34.668,-40.527,-62.012,0.000,0
1644802345.457,-84.961,-39.551,-46.387,-48.340,0.000,0
1644802345.461,-97.656,-30.273,-48.340,-57.617,0.000,0
1644802345.464,-125.000,-33.691,-51.758,-57.129,0.000,0
1644802345.468,-125.488,-39.062,-53.223,-56.641,0.000,0
1644802345.472,-92.773,-29.785,-50.293,-64.453,0.000,0
1644802345.476,-67.383,-32.227,-48.340,-56.152,0.000,0
1644802345.479,-72.754,-46.875,-48.340,-55.176,0.000,0
1644802345.483,-109.375,-53.711,-45.410,-54.199,0.000,0
1644802345.487,-117.188,-42.969,-34.180,-49.316,0.000,0
1644802345.491,-94.238,-37.109,-30.273,-59.082,0.000,0
1644802345.494,-72.754,-41.992,-37.109,-48.340,0.000,0
1644802345.500,-78.613,-39.551,-41.992,-48.340,0.000,0
1644802345.503,-100.098,-41.504,-50.293,-62.500,0.000,0
1644802345.507,-100.586,-43.457,-52.246,-56.152,0.000,0
1644802345.511,-76.660,-44.434,-50.781,-46.387,0.000,0
1644802345.515,-64.453,-41.504,-51.758,-47.363,0.000,0
1644802345.518,-70.801,-40.527,-55.664,-55.664,0.000,0
1644802345.522,-91.309,-46.875,-53.711,-54.199,0.000,0
1644802345.526,-97.656,-49.805,-47.852,-53.711,0.000,0
1644802345.529,-73.730,-42.969,-46.875,-61.523,0.000,0
1644802345.533,-71.289,-34.668,-42.969,-53.223,0.000,0
1644802345.537,-85.449,-35.645,-42.480,-46.875,0.000,0
1644802345.541,-84.961,-47.363,-48.340,-62.012,0.000,0
1644802345.546,-94.727,-50.293,-51.758,-67.871,0.000,0
1644802345.550,-96.680,-42.480,-51.270,-58.594,0.000,0
1644802345.554,-69.336,-39.062,-43.945,-46.387,0.000,0
1644802345.557,-60.059,-37.598,-42.480,-48.828,0.000,0
1644802345.561,-78.613,-40.039,-45.410,-45.898,0.000,0
1644802345.565,-89.844,-44.434,-42.969,-50.781,0.000,0
1644802345.568,-70.801,-34.180,-36.133,-45.410,0.000,0
1644802345.572,-54.199,-31.250,-38.086,-35.156,0.000,0
1644802345.576,-60.059,-33.203,-39.062,-44.434,0.000,0
1644802345.580,-94.727,-28.809,-35.645,-46.387,0.000,0
1644802345.583,-110.840,-35.645,-41.992,-44.434,0.000,0
1644802345.587,-83.496,-41.992,-42.480,-56.641,0.000,0
1644802345.593,-56.641,-34.180,-34.668,-50.781,0.000,0
1644802345.597,-51.270,-27.832,-29.297,-34.180,0.000,0
1644802345.600,-64.941,-42.480,-34.668,-30.762,0.000,0
1644802345.604,-95.703,-53.711,-45.898,-42.480,0.000,0
1644802345.608,-99.609,-40.039,-42.969,-52.734,0.000,0
1644802345.612,-81.543,-32.715,-38.086,-51.270,0.000,0
1644802345.615,-66.895,-38.574,-31.738,-41.992,0.000,0
1644802345.619,-79.102,-42.969,-31.738,-28.809,0.000,0
1644802345.623,-104.004,-45.410,-40.527,-39.551,0.000,0
1644802345.627,-99.121,-44.922,-39.062,-56.152,0.000,0
1644802345.630,-78.125,-45.410,-40.527,-47.363,0.000,0
1644802345.634,-60.059,-40.527,-42.480,-43.457,0.000,0
1644802345.639,-77.637,-40.039,-38.574,-57.617,0.000,0
1644802345.643,-101.562,-45.410,-43.457,-57.617,0.000,0
1644802345.647,-101.562,-39.551,-45.898,-51.758,0.000,0
1644802345.651,-82.031,-31.738,-39.551,-53.711,0.000,0
1644802345.654,-73.242,-27.832,-37.598,-41.992,0.000,0
1644802345.658,-83.984,-32.227,-36.621,-25.879,0.000,0
1644802345.662,-98.145,-43.945,-39.062,-34.668,0.000,0
1644802345.665,-101.562,-46.387,-44.434,-76.172,0.000,0
1644802345.669,-89.355,-44.434,-45.410,-94.727,0.000,0
1644802345.673,-76.172,-41.992,-40.527,-70.801,0.000,0
1644802345.677,-77.148,-42.969,-34.180,-60.547,0.000,0
1644802345.680,-98.145,-43.945,-37.598,-64.453,0.000,0
1644802345.686,-111.328,-40.527,-41.504,-61.035,0.000,0
