timestamps,TP9,AF7,AF8,TP10,Right AUX
1639814237.363,0.000,0.000,0.000,-0.488,0.000
1639814237.367,0.000,0.000,-3.906,0.000,0.000
1639814237.370,-32.227,-1.465,12.207,0.488,0.000
1639814237.374,70.312,0.488,-35.156,-6.348,0.000
1639814237.378,-396.484,-3.418,90.820,24.414,0.000
1639814237.382,-1000.000,-33.203,115.723,-21.973,0.000
1639814237.386,-997.070,-44.922,-129.883,-72.754,0.000
1639814237.390,-951.172,-25.391,-111.816,7.812,0.000
1639814237.394,-1000.000,-9.277,-60.059,35.156,0.000
1639814237.397,-668.457,-7.324,-30.273,55.176,0.000
1639814237.401,-417.969,-24.902,-44.434,-4.395,0.000
1639814237.405,-1000.000,-39.551,-50.293,-83.984,0.000
1639814237.409,-1000.000,-29.785,-37.598,-24.414,0.000,0
1639814237.412,-981.934,-14.160,-24.414,7.324,0.000,0
1639814237.416,-997.070,-9.277,-27.344,10.742,0.000,0
1639814237.420,-980.957,-24.414,-61.523,-22.949,0.000,0
1639814237.424,-1000.000,-36.133,-70.801,-49.805,0.000,0
1639814237.428,-1000.000,-36.621,-61.523,13.672,0.000,0
1639814237.432,-999.512,-30.273,-60.059,20.508,0.000,0
1639814237.435,-1000.000,-14.160,-50.781,22.949,0.000,0
1639814237.439,-1000.000,-28.320,-60.059,-9.766,0.000,0
1639814237.443,-1000.000,-38.574,-56.641,-80.566,0.000,0
1639814237.447,-1000.000,-28.320,-31.250,-29.785,0.000,0
1639814237.451,-1000.000,-41.504,-44.922,33.203,0.000,0
1639814237.456,-1000.000,-20.020,-48.340,34.180,0.000,0
1639814237.460,-1000.000,-4.395,-62.988,-24.414,0.000,0
1639814237.463,-1000.000,-32.715,-79.102,-86.914,0.000,0
1639814237.467,-1000.000,-44.922,-57.129,-51.270,0.000,0
1639814237.471,-1000.000,-27.832,-16.113,5.859,0.000,0
1639814237.475,-1000.000,-10.742,-13.184,26.367,0.000,0
1639814237.479,-1000.000,-17.578,-66.406,-2.441,0.000,0
1639814237.483,-1000.000,-30.762,-84.961,-42.969,0.000,0
1639814237.487,-1000.000,-28.809,-59.570,-20.996,0.000,0
1639814237.491,-1000.000,-24.902,-39.551,20.508,0.000,0
1639814237.494,-1000.000,-20.508,-31.738,45.898,0.000,0
1639814237.498,-1000.000,-15.137,-43.457,14.160,0.000,0
1639814237.507,-1000.000,-29.297,-69.336,-34.668,0.000,0
1639814237.511,-1000.000,-26.367,-60.547,-41.016,0.000,0
1639814237.515,-1000.000,-14.648,-31.738,-14.648,0.000,0
1639814237.519,-1000.000,-5.859,-34.668,16.113,0.000,0
1639814237.523,-1000.000,-7.812,-62.012,0.977,0.000,0
1639814237.527,-1000.000,-31.250,-75.684,-62.500,0.000,0
1639814237.531,-1000.000,-58.105,-68.359,-27.344,0.000,0
1639814237.535,-1000.000,-41.016,-43.457,52.246,0.000,0
1639814237.539,-1000.000,2.441,-10.742,66.406,0.000,0
1639814237.543,-1000.000,3.906,-32.715,44.922,0.000,0
1639814237.547,-1000.000,-19.531,-76.172,-33.691,0.000,0
1639814237.551,-1000.000,-28.320,-49.316,-63.477,0.000,0
1639814237.563,-1000.000,-21.484,-22.461,2.441,0.000,0
1639814237.567,-1000.000,-20.996,-21.484,33.203,0.000,0
1639814237.572,-1000.000,-12.207,-20.020,16.113,0.000,0
1639814237.576,-1000.000,-26.855,-52.246,-53.223,0.000,0
1639814237.580,-1000.000,-42.480,-64.453,-72.266,0.000,0
1639814237.584,-1000.000,-26.367,-50.293,5.371,0.000,0
1639814237.588,-1000.000,-20.508,-51.270,22.461,0.000,0
1639814237.592,-1000.000,-8.301,-40.527,20.020,0.000,0
1639814237.597,-1000.000,-11.230,-42.480,-19.043,0.000,0
1639814237.601,-1000.000,-42.969,-54.199,-67.871,0.000,0
1639814237.605,-1000.000,-39.551,-50.293,-5.371,0.000,0
1639814237.609,-1000.000,-20.020,-41.504,34.180,0.000,0
1639814237.634,-1000.000,-10.254,-27.832,24.414,0.000,0
1639814237.639,-1000.000,-29.785,-76.660,-34.180,0.000,0
1639814237.643,-1000.000,-47.852,-108.398,-77.637,0.000,0
1639814237.648,-1000.000,-25.391,-59.082,-25.879,0.000,0
1639814237.652,-1000.000,-9.766,-40.039,3.906,0.000,0
1639814237.657,-1000.000,-6.348,-40.527,9.766,0.000,0
1639814237.661,-1000.000,-9.277,-52.246,-20.508,0.000,0
1639814237.666,-1000.000,-33.691,-62.500,-72.754,0.000,0
1639814237.670,-1000.000,-39.062,-31.250,-20.020,0.000,0
1639814237.675,-1000.000,-16.113,-24.902,40.527,0.000,0
1639814237.679,-1000.000,-6.348,-39.551,39.062,0.000,0
1639814237.684,-1000.000,-20.996,-59.570,0.000,0.000,0
1639814237.709,-1000.000,-43.457,-82.031,-60.547,0.000,0
1639814237.714,-1000.000,-32.227,-50.781,-53.223,0.000,0
1639814237.719,-1000.000,-7.812,-19.531,-5.371,0.000,0
1639814237.723,-1000.000,-6.348,-21.973,46.875,0.000,0
1639814237.728,-1000.000,-25.879,-43.945,27.344,0.000,0
1639814237.733,-1000.000,-51.270,-62.988,-56.641,0.000,0
1639814237.738,-1000.000,-50.293,-51.758,-26.855,0.000,0
1639814237.743,-1000.000,-29.297,-31.738,10.742,0.000,0
1639814237.747,-1000.000,-18.555,-38.574,26.855,0.000,0
1639814237.752,-1000.000,-28.320,-58.105,32.227,0.000,0
1639814237.757,-1000.000,-31.738,-61.523,-41.016,0.000,0
1639814237.762,-1000.000,-32.227,-39.551,-45.410,0.000,0
1639814237.786,-1000.000,-33.691,-25.879,-0.977,0.000,0
1639814237.791,-1000.000,-23.926,-31.738,-11.719,0.000,0
1639814237.796,-1000.000,-14.648,-44.922,6.348,0.000,0
1639814237.801,-1000.000,-33.691,-63.477,-8.789,0.000,0
1639814237.806,-1000.000,-43.457,-58.594,-43.457,0.000,0
1639814237.811,-1000.000,-38.574,-55.176,0.488,0.000,0
1639814237.816,-1000.000,-30.762,-41.016,22.949,0.000,0
1639814237.821,-996.582,-6.836,-27.832,2.441,0.000,0
1639814237.826,-992.188,-18.066,-49.316,-52.246,0.000,0
1639814237.831,-1000.000,-32.227,-59.570,-51.758,0.000,0
1639814237.836,-969.727,-21.484,-40.039,7.812,0.000,0
1639814237.841,-1000.000,-14.160,-18.066,28.809,0.000,0
1639814237.856,-679.199,-13.672,-27.832,33.691,0.000,0
1639814237.861,-474.121,-20.996,-48.340,-29.297,0.000,0
1639814237.867,-1000.000,-22.461,-29.297,-43.945,0.000,0
1639814237.872,-980.469,-26.855,-22.461,-15.137,0.000,0
1639814237.877,-1000.000,-47.852,-55.176,18.555,0.000,0
1639814237.882,-758.789,-33.691,-53.711,36.621,0.000,0
1639814237.887,-468.262,-23.926,-58.105,-33.691,0.000,0
1639814237.892,-990.723,-35.156,-56.152,-73.730,0.000,0
1639814237.897,-966.797,-16.113,-30.762,-27.832,0.000,0
1639814237.903,-1000.000,-2.930,-25.391,12.695,0.000,0
1639814237.908,-645.020,1.465,-25.391,25.391,0.000,0
1639814237.913,104.492,-9.766,-55.176,8.789,0.000,0
1639814237.920,-839.355,-35.156,-69.336,-34.668,0.000,0
1639814237.925,-1000.000,-24.902,-42.480,-14.160,0.000,0
1639814237.931,-1000.000,-6.348,-23.926,26.367,0.000,0
1639814237.936,-710.938,-10.254,-20.020,23.438,0.000,0
1639814237.941,529.297,-20.020,-44.434,-4.395,0.000,0
1639814237.946,-439.453,-23.438,-62.500,-59.570,0.000,0
1639814237.951,-1000.000,-19.531,-39.551,-56.152,0.000,0
1639814237.956,-1000.000,-14.648,-33.691,-6.348,0.000,0
1639814237.962,-633.789,-1.953,-38.086,8.789,0.000,0
1639814237.967,873.047,1.465,-42.969,-3.418,0.000,0
1639814237.972,-69.824,-32.715,-54.199,-63.477,0.000,0
1639814237.977,-1000.000,-40.039,-43.945,-43.945,0.000,0
1639814237.978,-1000.000,-15.625,-20.020,6.348,0.000,0
1639814237.984,-690.918,-3.906,-8.789,7.324,0.000,0
1639814237.989,843.750,0.488,-21.484,12.207,0.000,0
1639814237.994,126.465,-25.879,-52.734,-41.016,0.000,0
1639814237.999,-1000.000,-34.668,-44.434,-32.715,0.000,0
1639814238.004,-987.305,-20.508,-29.785,30.273,0.000,0
1639814238.009,-937.988,-10.254,-33.691,34.668,0.000,0
1639814238.014,529.297,1.465,-42.969,42.480,0.000,0
1639814238.019,256.836,-8.789,-57.129,-27.344,0.000,0
1639814238.025,-1000.000,-25.879,-45.410,-76.172,0.000,0
1639814238.030,-964.844,-8.789,-2.441,-8.789,0.000,1
1639814238.035,-1000.000,-4.395,-2.441,39.062,0.000,0
1639814238.031,285.645,-17.578,-35.645,28.809,0.000,0
1639814238.036,302.734,-33.203,-58.594,-27.832,0.000,0
1639814238.041,-1000.000,-35.645,-50.293,-40.039,0.000,0
1639814238.046,-968.750,-22.461,-15.137,7.812,0.000,0
1639814238.051,-1000.000,-24.902,-9.277,10.254,0.000,0
1639814238.056,209.473,-15.625,-32.715,17.090,0.000,0
1639814238.061,363.770,-37.598,-71.289,-21.973,0.000,0
1639814238.066,-1000.000,-38.574,-66.406,-61.523,0.000,0
1639814238.072,-1000.000,-2.930,-30.273,-20.508,0.000,0
1639814238.077,-980.957,-3.418,-17.090,16.602,0.000,0
1639814238.082,318.848,-4.395,-22.949,37.598,0.000,0
1639814238.087,728.027,-10.254,-34.668,-16.602,0.000,0
1639814238.079,-777.832,-26.855,-38.086,-69.336,0.000,0
1639814238.084,-1000.000,-31.250,-35.156,-12.207,0.000,0
1639814238.089,-1000.000,-20.020,-33.691,30.273,0.000,0
1639814238.094,29.785,-9.277,-36.621,34.180,0.000,0
1639814238.099,832.520,-27.344,-44.434,-22.461,0.000,0
1639814238.104,-667.969,-53.711,-49.805,-62.500,0.000,0
1639814238.109,-1000.000,-32.227,-36.621,-14.160,0.000,0
1639814238.114,-1000.000,-7.812,-21.484,3.418,0.000,0
1639814238.119,-209.473,-14.160,-20.020,7.324,0.000,0
1639814238.124,931.152,-25.879,-49.805,-0.488,0.000,0
1639814238.129,-445.801,-31.250,-56.152,-32.715,0.000,0
1639814238.134,-1000.000,-20.020,-20.020,-7.812,0.000,0
1639814238.123,-1000.000,-5.371,-9.766,26.855,0.000,0
1639814238.128,-682.129,-20.996,-37.109,40.039,0.000,0
1639814238.133,772.949,-31.250,-67.383,26.367,0.000,0
1639814238.137,-93.750,-25.391,-60.547,-41.016,0.000,0
1639814238.142,-1000.000,-30.273,-39.062,-27.344,0.000,0
1639814238.147,-1000.000,-22.461,-27.832,33.203,0.000,0
1639814238.152,-614.746,-23.438,-28.809,39.062,0.000,0
1639814238.157,925.293,-13.672,-36.621,8.301,0.000,0
1639814238.162,100.098,-13.184,-52.246,-50.293,0.000,0
1639814238.167,-1000.000,-21.973,-49.805,-61.035,0.000,0
1639814238.172,-1000.000,-20.020,-40.039,-11.230,0.000,0
1639814238.176,-559.570,-13.672,-24.902,23.438,0.000,0
1639814238.163,979.004,-5.859,-28.809,36.621,0.000,0
1639814238.168,191.406,-29.785,-65.918,-39.062,0.000,0
1639814238.173,-1000.000,-36.621,-49.316,-53.223,0.000,0
1639814238.177,-960.938,-20.020,-19.531,3.906,0.000,0
1639814238.182,-1000.000,-13.184,-17.090,33.203,0.000,0
1639814238.187,303.223,-7.324,-26.367,63.477,0.000,0
1639814238.192,283.691,-30.273,-63.965,-37.598,0.000,0
1639814238.196,-1000.000,-44.434,-79.590,-61.523,0.000,0
1639814238.201,-931.152,-23.926,-60.547,11.719,0.000,0
1639814238.206,-1000.000,-20.996,-49.316,21.484,0.000,0
1639814238.211,-31.250,-3.418,-26.367,17.578,0.000,0
1639814238.215,307.129,-7.812,-30.273,-51.758,0.000,0
1639814238.200,-1000.000,-37.109,-41.992,-74.707,0.000,0
1639814238.205,-969.238,-38.086,-38.086,-8.789,0.000,0
1639814238.209,-1000.000,-7.324,-16.602,20.508,0.000,0
1639814238.214,-399.414,3.906,-12.695,21.973,0.000,0
1639814238.219,-54.199,-30.273,-64.453,-29.297,0.000,0
1639814238.223,-1000.000,-44.434,-83.496,-42.969,0.000,0
1639814238.228,-983.887,-21.484,-36.621,-32.227,0.000,0
1639814238.233,-1000.000,-9.277,-22.949,-18.066,0.000,0
1639814238.237,-742.676,-14.648,-44.434,37.598,0.000,0
1639814238.242,-212.402,-28.320,-50.293,-14.160,0.000,0
1639814238.247,-904.785,-24.414,-36.621,-84.473,0.000,0
1639814238.251,-991.211,-11.230,-29.785,2.930,0.000,0
1639814238.235,-1000.000,-15.137,-31.738,51.758,0.000,0
1639814238.239,-460.449,-16.113,-36.621,58.105,0.000,0
1639814238.244,920.410,-3.906,-42.969,20.508,0.000,0
1639814238.248,-184.570,-16.602,-51.270,-39.551,0.000,0
1639814238.253,-1000.000,-35.645,-38.086,20.508,0.000,0
1639814238.257,-98.633,-14.648,-16.113,83.984,0.000,0
1639814238.262,-948.730,30.762,9.766,97.656,0.000,0
1639814238.266,941.895,26.367,-8.301,93.262,0.000,0
1639814238.271,943.848,-3.906,-43.945,80.078,0.000,0
1639814238.275,972.168,12.695,-9.277,117.188,0.000,0
1639814238.280,966.797,41.992,25.879,167.969,0.000,0
1639814238.284,966.797,37.598,13.184,210.449,0.000,0
1639814238.269,966.309,35.645,-6.348,205.566,0.000,0
1639814238.274,966.309,50.293,-0.977,138.672,0.000,0
1639814238.278,966.797,54.199,21.973,168.945,0.000,0
1639814238.283,966.797,37.109,25.391,252.930,0.000,0
1639814238.287,966.309,32.715,21.973,279.297,0.000,0
1639814238.292,966.797,62.012,32.715,272.949,0.000,0
1639814238.296,966.797,56.152,22.461,220.703,0.000,0
1639814238.300,966.309,26.367,15.625,206.055,0.000,0
1639814238.305,966.797,39.062,29.785,256.348,0.000,0
1639814238.309,966.797,67.871,47.852,273.926,0.000,0
1639814238.314,966.797,60.547,28.809,279.785,0.000,0
1639814238.318,966.797,39.551,12.695,226.562,0.000,0
1639814238.305,966.309,29.785,25.879,221.191,0.000,0
1639814238.309,966.309,28.809,36.133,252.441,0.000,0
1639814238.314,966.797,23.438,25.879,259.766,0.000,0
1639814238.318,966.797,26.367,17.578,288.086,0.000,0
1639814238.322,966.309,14.160,9.277,249.023,0.000,0
1639814238.327,966.309,-10.254,3.906,216.309,0.000,0
1639814238.331,966.309,-11.719,-2.441,246.582,0.000,0
1639814238.335,966.797,-8.789,-18.555,248.047,0.000,0
1639814238.340,966.309,9.766,0.488,280.762,0.000,0
1639814238.344,966.309,15.625,-0.977,243.652,0.000,0
1639814238.348,966.309,-26.367,-21.484,185.059,0.000,0
1639814238.353,966.309,-48.340,-15.137,197.754,0.000,0
1639814238.341,966.309,-24.902,6.836,223.633,0.000,0
1639814238.345,966.309,-0.488,12.695,266.602,0.000,0
1639814238.349,966.309,-12.207,-12.207,226.562,0.000,0
1639814238.354,966.797,-33.691,-24.902,144.531,0.000,0
1639814238.358,966.797,-31.250,-20.508,169.434,0.000,0
1639814238.362,966.309,-30.273,-20.508,213.867,0.000,0
1639814238.367,966.309,-33.691,-27.832,253.418,0.000,0
1639814238.371,966.797,-26.367,-37.598,277.344,0.000,0
1639814238.375,966.309,-19.043,-21.973,220.215,0.000,0
1639814238.379,966.309,-29.297,-8.301,235.352,0.000,0
1639814238.384,966.309,-30.762,-13.672,289.551,0.000,0
1639814238.388,966.309,-5.371,-0.977,360.840,0.000,0
1639814238.377,966.309,15.625,13.672,393.555,0.000,0
1639814238.382,966.797,-7.324,-5.859,366.211,0.000,0
1639814238.386,966.797,-16.602,5.371,384.766,0.000,0
1639814238.390,966.797,-0.488,29.785,449.707,0.000,0
1639814238.394,966.309,5.371,33.203,535.645,0.000,0
1639814238.399,966.309,26.367,27.344,622.559,0.000,0
1639814238.403,966.797,10.254,1.465,596.191,0.000,0
1639814238.407,966.309,-1.465,12.207,541.992,0.000,0
1639814238.411,966.797,12.695,42.480,592.773,0.000,0
1639814238.415,966.797,8.789,38.086,637.695,0.000,0
1639814238.420,966.309,15.137,31.250,680.664,0.000,0
1639814238.424,966.797,-7.812,16.113,628.906,0.000,0
1639814238.416,966.797,-48.828,0.000,511.230,0.000,0
1639814238.420,966.309,-57.617,-8.789,499.512,0.000,0
1639814238.424,966.309,-43.457,-3.906,488.281,0.000,0
1639814238.428,966.309,-24.414,-12.695,490.234,0.000,0
1639814238.433,966.309,-50.293,-58.594,420.410,0.000,0
1639814238.437,966.309,-107.422,-87.402,287.109,0.000,0
1639814238.441,966.309,-104.492,-81.055,255.371,0.000,0
1639814238.445,966.797,-75.684,-61.035,262.207,0.000,0
1639814238.449,966.309,-59.082,-58.594,288.086,0.000,0
1639814238.453,966.309,-68.848,-78.613,254.883,0.000,0
1639814238.458,966.797,-96.680,-78.613,150.391,0.000,0
1639814238.462,966.797,-114.746,-80.566,107.422,0.000,0
1639814238.455,966.309,-111.328,-106.934,119.141,0.000,0
1639814238.459,966.797,-80.566,-106.445,159.668,0.000,0
1639814238.463,966.797,-74.219,-97.656,137.695,0.000,0
1639814238.467,966.309,-99.609,-94.727,32.227,0.000,0
1639814238.471,966.309,-113.281,-102.539,0.000,0.000,0
1639814238.476,966.309,-112.793,-116.699,15.625,0.000,0
1639814238.480,966.797,-87.402,-104.004,67.383,0.000,0
1639814238.484,966.309,-60.059,-102.051,78.613,0.000,0
1639814238.488,966.309,-81.055,-117.676,-32.227,0.000,0
1639814238.492,966.309,-109.863,-114.746,-83.984,0.000,0
1639814238.496,969.238,-97.656,-94.238,-49.805,0.000,0
1639814238.500,953.613,-67.871,-89.355,-0.488,0.000,0
1639814238.494,926.270,-49.316,-104.004,25.879,0.000,0
1639814238.498,-934.082,-73.242,-121.094,-50.293,0.000,0
1639814238.502,53.223,-104.492,-112.305,-120.117,0.000,0
1639814238.506,-1000.000,-97.656,-104.004,-104.980,0.000,0
1639814238.511,-305.664,-75.195,-107.422,-47.852,0.000,0
1639814238.515,-963.379,-54.199,-109.375,5.371,0.000,0
1639814238.519,906.738,-60.059,-108.887,-59.570,0.000,0
1639814238.523,-353.027,-80.078,-100.586,-104.004,0.000,0
1639814238.527,-1000.000,-102.539,-120.605,-86.914,0.000,0
1639814238.531,-647.461,-76.660,-105.957,-52.734,0.000,0
1639814238.535,783.691,-14.160,-63.965,5.371,0.000,0
1639814238.539,959.961,-35.156,-94.727,-39.062,0.000,0
1639814238.534,-434.082,-77.637,-110.840,-123.535,0.000,0
1639814238.538,-1000.000,-80.078,-98.145,-131.348,0.000,0
1639814238.542,-916.016,-60.059,-84.473,-90.332,0.000,0
1639814238.546,383.301,-28.320,-75.195,-3.906,0.000,0
1639814238.550,-889.160,-31.250,-82.520,-24.902,0.000,0
1639814238.554,-318.848,-64.941,-91.797,-120.117,0.000,0
1639814238.558,-1000.000,-73.242,-92.773,-109.375,0.000,0
1639814238.562,-1000.000,-67.383,-94.238,-84.961,0.000,0
1639814238.566,-95.703,-54.199,-88.867,9.277,0.000,0
1639814238.570,877.930,-35.156,-75.684,-16.602,0.000,0
1639814238.574,-623.535,-57.129,-78.125,-159.180,0.000,0
1639814238.579,-1000.000,-71.777,-88.867,-154.297,0.000,0
1639814238.574,-1000.000,-60.547,-80.078,-104.004,0.000,0
1639814238.578,-298.828,-34.180,-59.570,-19.531,0.000,0
1639814238.582,532.227,-28.809,-70.801,-32.227,0.000,0
1639814238.586,-860.840,-73.730,-107.422,-158.691,0.000,0
1639814238.590,-1000.000,-91.309,-118.164,-180.664,0.000,0
1639814238.594,-947.754,-70.801,-94.727,-149.414,0.000,0
1639814238.598,-995.117,-40.527,-70.801,-59.082,0.000,0
1639814238.602,-887.695,-39.551,-78.613,-23.926,0.000,0
1639814238.606,-981.445,-64.941,-93.750,-141.113,0.000,0
1639814238.610,-1000.000,-66.406,-86.426,-201.660,0.000,0
1639814238.614,-992.676,-68.848,-82.031,-167.480,0.000,0
1639814238.618,-1000.000,-41.504,-66.895,-90.820,0.000,0
1639814238.614,-1000.000,-20.508,-66.406,-68.359,0.000,0
1639814238.618,-1000.000,-50.781,-83.496,-171.875,0.000,0
1639814238.622,-1000.000,-82.520,-97.168,-215.820,0.000,0
1639814238.626,-1000.000,-79.590,-96.191,-190.918,0.000,0
1639814238.630,-1000.000,-49.805,-78.613,-152.344,0.000,0
1639814238.634,-1000.000,-36.133,-93.750,-115.723,0.000,0
1639814238.638,-1000.000,-59.570,-120.117,-231.445,0.000,0
1639814238.642,-1000.000,-94.727,-127.441,-328.613,0.000,0
1639814238.646,-1000.000,-86.426,-109.375,-329.102,0.000,0
1639814238.650,-1000.000,-64.941,-90.820,-312.500,0.000,0
1639814238.654,-1000.000,-61.035,-99.609,-265.625,0.000,0
1639814238.658,-1000.000,-79.102,-108.398,-359.375,0.000,0
1639814238.655,-1000.000,-109.375,-111.816,-467.285,0.000,0
1639814238.659,-1000.000,-115.234,-119.629,-491.211,0.000,0
1639814238.663,-1000.000,-104.004,-146.973,-466.309,0.000,0
1639814238.667,-1000.000,-89.844,-161.621,-464.355,0.000,0
1639814238.671,-1000.000,-101.074,-162.598,-576.172,0.000,0
1639814238.675,-1000.000,-112.305,-159.180,-594.238,0.000,0
1639814238.679,-1000.000,-104.492,-156.250,-509.277,0.000,0
1639814238.683,-1000.000,-83.008,-136.230,-459.961,0.000,0
1639814238.687,-1000.000,-44.434,-103.516,-417.969,0.000,0
1639814238.691,-1000.000,-56.641,-130.371,-479.492,0.000,0
1639814238.695,-1000.000,-89.355,-145.996,-589.844,0.000,0
1639814238.699,-1000.000,-95.703,-122.559,-581.543,0.000,0
1639814238.696,-1000.000,-83.496,-118.164,-540.039,0.000,0
1639814238.699,-1000.000,-57.129,-136.719,-465.820,0.000,0
1639814238.703,-1000.000,-67.871,-153.809,-523.926,0.000,0
1639814238.707,-1000.000,-84.961,-138.672,-652.832,0.000,0
1639814238.711,-1000.000,-76.660,-135.254,-632.812,0.000,0
1639814238.715,-1000.000,-72.266,-143.066,-561.035,0.000,0
1639814238.719,-1000.000,-47.363,-138.672,-426.758,0.000,0
1639814238.723,-1000.000,-15.137,-119.629,-390.137,0.000,0
1639814238.727,-1000.000,-22.461,-95.703,-466.797,0.000,0
1639814238.731,-1000.000,-27.832,-83.008,-412.598,0.000,0
1639814238.735,-1000.000,-7.812,-64.453,-319.336,0.000,0
1639814238.739,-1000.000,25.391,-40.527,-224.121,0.000,0
1639814238.738,-1000.000,40.039,-44.922,-170.410,0.000,0
1639814238.742,-1000.000,15.137,-53.711,-204.102,0.000,0
1639814238.746,-1000.000,15.625,-31.738,-184.082,0.000,0
1639814238.750,-1000.000,42.480,-9.766,-122.559,0.000,0
1639814238.753,-1000.000,63.965,6.836,-30.273,0.000,0
1639814238.757,-1000.000,62.988,-10.254,13.184,0.000,0
1639814238.761,-1000.000,40.039,-14.648,-70.312,0.000,0
1639814238.765,-1000.000,35.645,7.812,-85.938,0.000,0
1639814238.769,-1000.000,29.785,10.254,-20.508,0.000,0
1639814238.773,-1000.000,32.227,9.766,68.359,0.000,0
1639814238.777,-1000.000,52.734,-5.859,96.191,0.000,0
1639814238.781,-1000.000,46.387,-11.230,-13.184,0.000,0
1639814238.781,-1000.000,22.949,-1.465,-79.102,0.000,0
1639814238.785,-1000.000,25.391,-1.465,-62.012,0.000,0
1639814238.789,-1000.000,48.828,10.254,9.277,0.000,0
1639814238.793,-1000.000,54.688,6.348,72.266,0.000,0
1639814238.797,-1000.000,27.832,-14.160,21.484,0.000,0
1639814238.801,-938.477,7.812,-8.301,-7.324,0.000,0
1639814238.805,-1000.000,21.973,12.207,50.781,0.000,0
1639814238.809,-209.473,58.105,34.180,133.301,0.000,0
1639814238.813,-959.473,77.637,34.668,245.605,0.000,0
1639814238.817,948.730,62.500,24.414,226.562,0.000,0
1639814238.820,940.430,58.105,52.734,167.480,0.000,0
1639814238.824,973.145,69.824,65.918,228.516,0.000,0
1639814238.824,966.309,71.289,52.734,256.836,0.000,0
1639814238.827,966.309,77.637,45.410,289.551,0.000,0
1639814238.831,966.309,68.359,49.805,227.539,0.000,0
1639814238.835,966.797,32.715,45.410,86.914,0.000,0
1639814238.839,975.098,-2.930,24.902,41.992,0.000,0
1639814238.843,931.641,-23.926,7.324,12.207,0.000,0
1639814238.847,970.215,-19.043,-22.949,-4.395,0.000,0
1639814238.851,967.773,-49.316,-62.500,-150.879,0.000,0
1639814238.855,-293.945,-110.840,-93.262,-378.418,0.000,0
1639814238.859,-1000.000,-121.094,-94.238,-400.391,0.000,0
1639814238.863,-995.605,-82.520,-60.547,-233.887,0.000,0
1639814238.867,189.453,0.000,-16.602,129.395,0.000,0
1639814238.866,-900.391,69.336,2.930,422.852,0.000,0
1639814238.870,905.762,104.004,37.598,468.750,0.000,0
1639814238.874,966.309,124.023,85.449,504.883,0.000,0
1639814238.878,966.797,116.211,88.867,541.504,0.000,0
1639814238.882,966.797,130.859,78.125,619.141,0.000,0
1639814238.886,966.309,143.555,86.426,677.734,0.000,0
1639814238.890,966.309,122.559,106.445,639.160,0.000,0
1639814238.894,966.797,107.910,118.164,654.297,0.000,0
1639814238.897,966.309,107.422,110.352,722.656,0.000,1
1639814238.901,966.309,132.324,113.281,765.137,0.000,0
1639814238.905,966.797,113.281,82.031,742.188,0.000,0
1639814238.909,966.797,48.828,47.852,608.398,0.000,0
1639814238.909,966.309,25.879,60.547,528.809,0.000,0
1639814238.913,966.309,31.738,76.172,550.293,0.000,0
1639814238.917,966.309,47.363,72.754,617.676,0.000,0
1639814238.921,966.309,43.945,51.270,652.344,0.000,0
1639814238.924,966.309,-5.371,30.273,517.090,0.000,0
1639814238.928,966.309,-37.598,14.160,395.508,0.000,0
1639814238.932,966.309,-37.598,12.207,375.488,0.000,0
1639814238.936,966.309,-42.969,-10.742,441.406,0.000,0
1639814238.940,966.309,-36.621,-20.996,488.770,0.000,0
1639814238.944,966.309,-49.316,-17.578,331.543,0.000,0
1639814238.948,966.309,-93.750,-45.410,175.781,0.000,0
1639814238.952,966.309,-106.445,-52.246,163.574,0.000,0
1639814238.952,966.797,-83.008,-40.039,218.262,0.000,0
1639814238.956,966.797,-64.941,-68.359,256.348,0.000,0
1639814238.959,966.797,-95.215,-96.191,131.348,0.000,0
1639814238.963,966.309,-133.301,-87.402,6.348,0.000,0
1639814238.967,966.309,-135.742,-91.309,-13.184,0.000,0
1639814238.971,966.309,-116.699,-102.539,-3.418,0.000,0
1639814238.975,966.309,-97.168,-100.586,73.730,0.000,0
1639814238.979,966.309,-114.746,-123.047,13.672,0.000,0
1639814238.983,966.309,-133.789,-131.836,-164.551,0.000,0
1639814238.987,979.004,-141.602,-127.930,-217.285,0.000,0
1639814238.991,916.016,-143.066,-142.578,-165.527,0.000,0
1639814238.995,-988.770,-112.305,-141.602,-96.680,0.000,0
1639814238.995,843.262,-110.840,-140.137,-186.523,0.000,0
1639814238.999,-531.738,-151.855,-150.879,-332.520,0.000,0
1639814239.002,-1000.000,-170.898,-161.621,-356.934,0.000,0
1639814239.006,-935.547,-164.062,-163.574,-354.004,0.000,0
1639814239.010,-1000.000,-139.648,-158.203,-289.551,0.000,0
1639814239.014,-1000.000,-128.906,-167.480,-333.984,0.000,0
1639814239.018,-1000.000,-174.316,-204.102,-534.180,0.000,0
1639814239.022,-1000.000,-197.754,-220.215,-621.094,0.000,0
1639814239.026,-1000.000,-177.246,-201.660,-625.000,0.000,0
1639814239.030,-1000.000,-165.527,-202.637,-568.848,0.000,0
1639814239.034,-1000.000,-163.086,-212.402,-602.539,0.000,0
1639814239.037,-1000.000,-188.477,-216.797,-737.793,0.000,0
1639814239.038,-1000.000,-199.219,-219.238,-773.438,0.000,0
1639814239.041,-1000.000,-184.570,-222.168,-750.977,0.000,0
1639814239.045,-1000.000,-163.574,-212.891,-651.855,0.000,0
1639814239.049,-1000.000,-143.555,-212.891,-615.234,0.000,0
1639814239.053,-1000.000,-164.062,-218.262,-758.301,0.000,0
1639814239.057,-1000.000,-196.777,-229.980,-805.176,0.000,0
1639814239.061,-1000.000,-187.988,-243.652,-761.230,0.000,0
1639814239.065,-1000.000,-142.578,-216.309,-700.684,0.000,0
1639814239.069,-1000.000,-116.699,-203.613,-645.020,0.000,0
1639814239.073,-1000.000,-149.902,-210.449,-744.629,0.000,0
1639814239.076,-1000.000,-159.668,-198.730,-804.688,0.000,0
1639814239.080,-1000.000,-132.812,-181.152,-734.375,0.000,0
1639814239.081,-1000.000,-105.957,-161.133,-635.742,0.000,0
1639814239.085,-1000.000,-85.449,-170.898,-551.270,0.000,0
1639814239.088,-1000.000,-103.516,-180.664,-628.418,0.000,0
1639814239.092,-1000.000,-109.375,-162.109,-721.680,0.000,0
1639814239.096,-1000.000,-93.750,-158.203,-678.223,0.000,0
1639814239.100,-1000.000,-85.938,-151.855,-591.309,0.000,0
1639814239.104,-1000.000,-68.359,-149.414,-513.672,0.000,0
1639814239.108,-1000.000,-74.707,-151.367,-601.074,0.000,0
1639814239.112,-1000.000,-97.656,-150.879,-714.355,0.000,0
1639814239.115,-1000.000,-108.887,-162.109,-674.805,0.000,0
1639814239.119,-1000.000,-94.238,-148.438,-609.375,0.000,0
1639814239.123,-1000.000,-56.641,-120.605,-519.531,0.000,0
1639814239.125,-1000.000,-56.641,-120.605,-512.695,0.000,0
1639814239.129,-1000.000,-71.289,-115.234,-569.336,0.000,0
1639814239.133,-1000.000,-56.641,-95.703,-534.668,0.000,0
1639814239.136,-1000.000,-24.902,-77.148,-419.922,0.000,0
1639814239.140,-1000.000,6.836,-57.617,-255.859,0.000,0
1639814239.144,-1000.000,10.254,-60.547,-232.910,0.000,0
1639814239.148,-1000.000,3.906,-60.547,-284.180,0.000,0
1639814239.152,-1000.000,9.766,-39.551,-238.281,0.000,0
1639814239.156,-1000.000,18.066,-27.832,-155.273,0.000,0
1639814239.160,-1000.000,41.016,-15.625,-48.340,0.000,0
1639814239.163,-1000.000,53.711,-6.348,-66.895,0.000,0
1639814239.167,-1000.000,34.180,-6.836,-163.086,0.000,0
1639814239.169,-1000.000,17.090,-16.602,-125.488,0.000,0
1639814239.173,-1000.000,21.484,-9.766,-52.246,0.000,0
1639814239.177,-1000.000,64.453,10.254,35.645,0.000,0
1639814239.181,-1000.000,68.359,7.812,52.734,0.000,0
1639814239.184,-1000.000,32.715,2.441,-34.180,0.000,0
1639814239.188,-938.965,26.855,11.719,-10.742,0.000,0
1639814239.192,-1000.000,37.598,5.859,80.566,0.000,0
1639814239.196,-750.488,60.547,7.812,159.180,0.000,0
1639814239.200,666.504,64.453,12.695,202.637,0.000,0
1639814239.204,-949.219,47.363,30.273,150.391,0.000,0
1639814239.208,904.297,53.711,62.988,157.227,0.000,0
1639814239.211,979.980,55.664,59.082,243.652,0.000,0
1639814239.213,966.309,82.031,74.707,356.934,0.000,0
1639814239.217,966.309,114.746,87.402,420.410,0.000,0
1639814239.221,966.309,97.168,85.938,368.652,0.000,0
1639814239.225,966.309,83.984,86.914,396.973,0.000,0
1639814239.229,966.797,92.285,87.891,493.652,0.000,0
1639814239.233,966.797,120.605,106.445,603.027,0.000,0
1639814239.236,966.797,140.625,127.441,668.457,0.000,0
1639814239.240,966.309,101.562,106.445,567.871,0.000,0
1639814239.244,966.309,63.965,69.336,486.328,0.000,0
1639814239.248,966.797,79.590,83.984,507.324,0.000,0
1639814239.252,966.309,87.402,98.633,548.828,0.000,0
1639814239.256,966.309,76.172,76.172,557.617,0.000,0
1639814239.258,966.309,52.734,65.918,432.129,0.000,0
1639814239.261,966.797,25.879,66.895,328.125,0.000,0
1639814239.265,966.797,9.277,59.570,348.633,0.000,0
1639814239.269,966.309,15.137,54.688,380.859,0.000,0
1639814239.273,966.797,31.738,45.898,394.043,0.000,0
1639814239.277,966.309,0.977,21.973,310.547,0.000,0
1639814239.281,966.309,-33.203,11.230,225.098,0.000,0
1639814239.285,966.309,-43.945,0.488,227.051,0.000,0
1639814239.288,966.797,-40.527,4.395,245.605,0.000,0
1639814239.292,966.797,5.371,9.766,270.996,0.000,0
1639814239.296,966.309,-6.836,-30.762,200.684,0.000,0
1639814239.300,966.309,-57.617,-42.480,90.332,0.000,0
1639814239.302,966.797,-64.453,-20.020,76.172,0.000,0
1639814239.306,966.309,-50.781,-12.695,87.891,0.000,0
1639814239.310,966.309,-40.527,-23.926,161.133,0.000,0
1639814239.313,966.309,-41.504,-40.039,113.770,0.000,0
1639814239.317,966.309,-63.965,-43.945,-33.691,0.000,0
1639814239.321,966.309,-83.008,-54.688,-26.367,0.000,0
1639814239.325,966.309,-87.402,-65.918,-1.953,0.000,0
1639814239.329,966.309,-73.242,-59.570,73.242,0.000,0
1639814239.333,966.309,-58.594,-59.082,35.156,0.000,0
1639814239.337,966.309,-79.590,-59.082,-112.305,0.000,0
1639814239.340,966.309,-108.398,-65.918,-115.723,0.000,0
1639814239.344,966.309,-102.539,-63.965,-83.008,0.000,0
1639814239.347,973.633,-67.871,-44.922,-26.855,0.000,0
1639814239.351,927.734,-61.523,-65.918,-62.500,0.000,0
1639814239.355,993.164,-95.703,-97.168,-202.637,0.000,0
1639814239.359,892.578,-109.375,-93.262,-251.953,0.000,0
1639814239.362,-614.746,-99.121,-79.590,-241.211,0.000,0
1639814239.366,-224.609,-86.426,-89.844,-166.992,0.000,0
1639814239.370,344.727,-94.727,-119.629,-177.246,0.000,0
1639814239.374,-1000.000,-119.141,-113.770,-305.176,0.000,0
1639814239.378,-1000.000,-117.188,-90.332,-374.023,0.000,0
1639814239.382,-959.473,-130.371,-116.211,-388.672,0.000,0
1639814239.385,-1000.000,-122.070,-122.070,-395.996,0.000,0
1639814239.389,-1000.000,-108.398,-110.352,-456.055,0.000,0
1639814239.391,-1000.000,-143.555,-139.160,-612.793,0.000,0
1639814239.395,-1000.000,-184.082,-179.688,-708.984,0.000,0
1639814239.399,-1000.000,-192.383,-186.523,-769.043,0.000,0
1639814239.403,-1000.000,-187.500,-199.219,-837.891,0.000,0
1639814239.407,-1000.000,-188.965,-223.145,-884.277,0.000,0
1639814239.410,-1000.000,-205.078,-235.840,-925.781,0.000,0
1639814239.414,-1000.000,-189.941,-208.008,-800.293,0.000,0
1639814239.418,-1000.000,-128.418,-150.391,-565.918,0.000,0
1639814239.422,-1000.000,-58.594,-108.398,-370.117,0.000,0
1639814239.426,-1000.000,-15.625,-101.562,-222.656,0.000,0
1639814239.430,-1000.000,-21.484,-104.492,-224.609,0.000,0
1639814239.434,-1000.000,-18.066,-63.477,-280.273,0.000,0
1639814239.436,-1000.000,-15.625,-45.410,-229.004,0.000,0
1639814239.439,-1000.000,-11.719,-47.363,-130.859,0.000,0
1639814239.443,-1000.000,20.996,-27.832,-23.926,0.000,0
1639814239.447,-1000.000,23.438,-24.902,-45.410,0.000,0
1639814239.451,-1000.000,5.371,-33.203,-70.312,0.000,0
1639814239.455,-1000.000,4.395,-36.621,13.184,0.000,0
1639814239.459,-1000.000,11.230,-25.391,42.969,0.000,0
1639814239.462,-1000.000,31.250,-6.348,70.801,0.000,0
1639814239.466,-1000.000,25.391,-0.488,14.160,0.000,0
1639814239.470,-931.641,-7.812,-8.789,-0.488,0.000,0
1639814239.474,-1000.000,4.883,8.301,87.891,0.000,0
1639814239.478,-604.492,42.969,35.645,131.348,0.000,0
1639814239.482,813.965,57.129,37.109,208.008,0.000,0
1639814239.485,-978.027,53.223,12.207,226.562,0.000,0
1639814239.489,911.133,54.688,24.414,231.445,0.000,0
1639814239.493,980.469,57.617,62.500,327.637,0.000,0
1639814239.497,966.309,64.941,68.359,422.852,0.000,0
1639814239.501,966.309,93.262,64.941,496.094,0.000,0
1639814239.505,966.309,99.609,67.871,490.723,0.000,0
1639814239.508,966.309,77.637,66.895,420.410,0.000,0
1639814239.512,966.309,65.918,67.871,434.082,0.000,0
1639814239.516,966.309,58.105,81.543,482.422,0.000,0
1639814239.520,966.309,81.055,93.750,521.484,0.000,0
1639814239.524,966.309,84.961,68.359,471.191,0.000,0
1639814239.527,966.309,38.086,42.969,350.098,0.000,0
1639814239.530,966.309,13.672,56.152,331.543,0.000,0
1639814239.534,966.309,19.043,58.594,326.660,0.000,0
1639814239.538,966.797,23.926,41.016,356.934,0.000,0
1639814239.542,966.309,19.043,13.672,348.145,0.000,0
1639814239.546,966.309,-11.719,-11.719,234.863,0.000,0
1639814239.550,966.309,-24.414,-11.230,181.641,0.000,0
1639814239.553,966.309,-16.602,-0.488,191.895,0.000,0
1639814239.557,966.797,-22.461,1.465,227.051,0.000,0
1639814239.561,966.309,-13.672,-19.043,173.340,0.000,0
1639814239.565,966.309,-27.832,-34.180,60.547,0.000,0
1639814239.569,966.309,-49.805,-29.297,33.691,0.000,0
1639814239.572,966.309,-58.105,-34.180,58.594,0.000,0
1639814239.576,966.309,-44.922,-35.156,80.566,0.000,0
1639814239.579,966.309,-24.902,-29.785,60.059,0.000,0
1639814239.583,966.309,-56.641,-50.781,-36.133,0.000,0
1639814239.587,966.797,-78.613,-69.336,-100.098,0.000,0
1639814239.591,966.797,-73.242,-60.547,-101.562,0.000,0
1639814239.595,976.562,-58.105,-53.711,-73.730,0.000,0
1639814239.599,898.438,-56.152,-81.055,-55.176,0.000,0
1639814239.602,-914.062,-86.426,-102.539,-125.000,0.000,0
1639814239.606,457.031,-87.891,-73.730,-212.402,0.000,0
1639814239.610,-920.410,-78.613,-54.688,-220.703,0.000,0
1639814239.614,-1000.000,-88.379,-64.453,-201.660,0.000,0
1639814239.617,-953.125,-78.125,-74.219,-218.750,0.000,0
1639814239.621,-1000.000,-83.008,-96.191,-312.988,0.000,0
1639814239.625,-1000.000,-111.816,-115.723,-400.391,0.000,0
1639814239.628,-1000.000,-123.047,-125.000,-428.223,0.000,0
1639814239.632,-1000.000,-126.465,-125.977,-482.910,0.000,0
1639814239.636,-1000.000,-135.254,-133.789,-524.902,0.000,0
1639814239.640,-1000.000,-151.367,-164.062,-642.090,0.000,0
1639814239.644,-1000.000,-181.152,-184.082,-770.508,0.000,0
1639814239.648,-1000.000,-173.340,-175.293,-738.770,0.000,1
1639814239.651,-1000.000,-128.906,-154.297,-667.969,0.000,0
1639814239.655,-1000.000,-87.891,-154.297,-508.301,0.000,0
1639814239.659,-1000.000,-56.641,-138.184,-373.047,0.000,0
1639814239.662,-1000.000,-40.527,-83.984,-320.312,0.000,0
1639814239.666,-1000.000,-20.996,-41.016,-249.023,0.000,0
1639814239.670,-1000.000,-16.113,-29.785,-196.289,0.000,0
1639814239.673,-1000.000,-8.789,-41.016,-153.320,0.000,0
1639814239.677,-1000.000,2.441,-50.293,-179.688,0.000,0
1639814239.681,-1000.000,-11.719,-43.457,-183.594,0.000,0
1639814239.685,-1000.000,-17.090,-37.598,-108.887,0.000,0
1639814239.689,-1000.000,-4.883,-33.203,-72.754,0.000,0
1639814239.693,-1000.000,16.602,-20.996,-56.641,0.000,0
1639814239.696,-1000.000,14.648,-26.367,-88.379,0.000,0
1639814239.700,-1000.000,-11.719,-36.621,-131.836,0.000,0
1639814239.704,-1000.000,-8.789,-28.809,-108.398,0.000,0
1639814239.707,-1000.000,12.695,-17.090,-61.035,0.000,0
1639814239.711,-1000.000,21.484,-12.207,-14.648,0.000,0
1639814239.715,-1000.000,2.441,-23.438,-36.621,0.000,0
1639814239.719,-1000.000,-13.184,-22.461,-107.422,0.000,0
1639814239.722,-1000.000,-3.906,-3.418,-105.957,0.000,0
1639814239.726,-1000.000,-1.465,3.418,-47.363,0.000,0
1639814239.730,-1000.000,-1.953,-20.996,15.625,0.000,0
1639814239.734,-1000.000,2.441,-39.062,8.789,0.000,0
1639814239.738,-1000.000,3.418,-23.926,-69.336,0.000,0
1639814239.742,-1000.000,0.977,-19.531,-71.289,0.000,0
1639814239.745,-1000.000,3.906,-14.648,-41.016,0.000,0
1639814239.749,-1000.000,8.789,-8.301,-24.414,0.000,0
1639814239.752,-1000.000,17.090,-18.066,-27.832,0.000,0
1639814239.756,-1000.000,-1.465,-31.738,-70.801,0.000,0
1639814239.760,-996.582,-21.484,-25.391,-79.590,0.000,0
1639814239.764,-953.125,-9.277,-8.301,-67.871,0.000,0
1639814239.767,-1000.000,1.465,-13.672,-34.668,0.000,0
1639814239.771,-96.191,-0.488,-29.785,-16.602,0.000,0
1639814239.775,53.223,-23.438,-47.363,-73.730,0.000,0
1639814239.779,-1000.000,-32.715,-29.785,-92.285,0.000,0
1639814239.783,-987.793,-10.742,-0.488,-43.945,0.000,0
1639814239.787,-1000.000,-2.441,-18.066,-4.883,0.000,0
1639814239.790,323.242,-1.953,-50.781,5.859,0.000,0
1639814239.794,917.969,3.418,-32.227,-70.312,0.000,0
1639814239.797,-482.422,0.488,-13.184,-100.098,0.000,0
1639814239.801,-1000.000,-14.160,-17.578,-44.434,0.000,0
1639814239.805,-483.887,-20.996,-12.207,-16.602,0.000,0
1639814239.809,744.629,-3.418,-13.672,-6.836,0.000,0
1639814239.812,-835.449,-0.977,-20.996,-64.941,0.000,0
1639814239.816,176.270,-23.438,-38.086,-76.172,0.000,0
1639814239.820,-1000.000,-20.508,-29.297,-22.461,0.000,0
1639814239.824,74.219,1.465,-0.977,-14.648,0.000,0
1639814239.828,-910.645,11.719,-7.812,20.020,0.000,0
1639814239.832,920.898,6.348,-13.184,13.184,0.000,0
1639814239.835,954.590,-7.812,-19.531,-40.527,0.000,0
1639814239.839,969.727,-12.695,-37.598,-41.504,0.000,0
1639814239.843,966.309,-24.902,-32.227,-4.395,0.000,0
1639814239.847,966.309,-23.438,-19.043,37.109,0.000,0
1639814239.850,966.797,-8.789,-30.273,-19.531,0.000,0
1639814239.854,966.309,-10.254,-29.297,-95.215,0.000,0
1639814239.858,966.309,-18.555,-17.578,-75.195,0.000,0
1639814239.862,966.797,-20.508,-36.133,-42.969,0.000,0
1639814239.866,966.797,-2.930,-37.109,-34.668,0.000,0
1639814239.870,966.309,-2.441,-38.574,-52.246,0.000,0
1639814239.873,966.309,-23.438,-60.547,-95.215,0.000,0
1639814239.877,966.309,-26.855,-37.598,-68.848,0.000,0
1639814239.881,966.309,-14.648,-12.207,-40.527,0.000,0
1639814239.885,966.309,-11.719,-17.578,-42.480,0.000,0
1639814239.889,966.797,-17.578,-30.273,-50.781,0.000,0
1639814239.892,966.309,-30.762,-26.855,-103.027,0.000,0
1639814239.896,966.309,-31.250,-10.742,-103.516,0.000,0
1639814239.900,966.309,-20.996,-16.602,-57.129,0.000,0
1639814239.904,966.309,-20.508,-34.180,-20.020,0.000,0
1639814239.908,966.309,-20.508,-48.340,-44.434,0.000,0
1639814239.911,966.309,-23.438,-46.387,-113.770,0.000,0
1639814239.915,966.309,-16.602,-25.391,-111.816,0.000,0
1639814239.919,966.309,-30.273,-29.785,-62.988,0.000,0
1639814239.923,966.309,-35.156,-39.062,-26.367,0.000,0
1639814239.927,966.309,-2.441,-33.203,-26.855,0.000,0
1639814239.931,966.309,-11.719,-35.156,-99.609,0.000,0
1639814239.934,966.309,-33.691,-36.133,-91.797,0.000,0
1639814239.938,966.309,-24.414,-49.805,-56.152,0.000,0
1639814239.942,966.797,-8.301,-39.062,-52.734,0.000,0
1639814239.946,966.797,-5.371,-33.691,-20.996,0.000,0
1639814239.950,966.309,-17.090,-50.781,-80.566,0.000,0
1639814239.953,966.309,-25.879,-44.922,-112.793,0.000,0
1639814239.957,966.309,-27.832,-29.785,-57.617,0.000,0
1639814239.961,966.309,-26.367,-37.109,-23.926,0.000,0
1639814239.965,966.309,-26.367,-50.781,-19.531,0.000,0
1639814239.969,966.309,-20.508,-48.828,-85.938,0.000,0
1639814239.973,966.309,-18.066,-31.738,-121.094,0.000,0
1639814239.976,966.309,-21.484,-21.484,-67.871,0.000,0
1639814239.980,966.309,-14.648,-10.742,-30.762,0.000,0
1639814239.984,966.797,-0.977,-10.254,-28.320,0.000,0
1639814239.988,966.309,-8.789,-37.109,-88.867,0.000,0
1639814239.991,966.309,-24.902,-38.086,-113.281,0.000,0
1639814239.995,966.309,-23.926,-22.461,-63.965,0.000,0
1639814239.999,966.309,-11.230,-22.949,-30.762,0.000,0
1639814240.003,966.309,1.465,-18.555,-23.926,0.000,0
1639814240.007,966.309,-17.578,-38.086,-68.848,0.000,0
1639814240.011,966.797,-33.691,-37.598,-96.191,0.000,0
1639814240.014,966.309,-11.230,0.488,-61.523,0.000,0
1639814240.018,966.309,-3.906,7.324,-18.555,0.000,0
1639814240.022,966.797,14.160,2.441,51.758,0.000,0
1639814240.026,966.797,26.367,-4.883,68.848,0.000,0
1639814240.029,966.309,7.324,-8.301,28.320,0.000,0
1639814240.033,966.309,-8.301,12.207,64.941,0.000,0
1639814240.037,966.309,4.883,25.391,121.094,0.000,0
1639814240.041,966.309,31.738,25.879,175.293,0.000,0
1639814240.045,966.797,30.273,20.996,208.984,0.000,0
1639814240.049,966.309,8.789,19.043,174.805,0.000,0
1639814240.052,966.309,2.930,8.789,220.215,0.000,0
1639814240.056,966.309,23.438,26.367,251.465,0.000,0
1639814240.060,966.309,39.551,43.945,265.137,0.000,0
1639814240.064,966.309,27.832,11.230,299.805,0.000,0
1639814240.068,966.309,10.742,3.418,201.172,0.000,0
1639814240.071,966.797,-2.441,23.926,143.555,0.000,0
1639814240.075,966.797,-2.441,31.250,171.387,0.000,0
1639814240.079,966.797,4.883,12.695,212.891,0.000,0
1639814240.083,966.309,14.648,-7.324,226.074,0.000,0
1639814240.087,966.309,-4.395,-14.648,120.117,0.000,0
1639814240.090,966.797,-36.621,-22.949,49.805,0.000,0
1639814240.094,966.309,-55.176,-28.809,81.543,0.000,0
1639814240.098,966.309,-46.387,-27.832,89.355,0.000,0
1639814240.102,966.309,-11.719,-21.484,74.219,0.000,0
1639814240.106,966.309,-23.926,-36.621,12.207,0.000,0
1639814240.109,966.309,-48.828,-40.039,-48.340,0.000,0
1639814240.113,966.309,-66.406,-28.809,-63.477,0.000,0
1639814240.117,966.309,-66.895,-34.668,-93.262,0.000,0
1639814240.121,966.309,-45.898,-67.383,-87.402,0.000,0
1639814240.124,966.797,-54.199,-88.379,-166.992,0.000,0
1639814240.128,966.309,-71.289,-93.262,-282.227,0.000,0
1639814240.132,966.309,-74.707,-91.797,-277.832,0.000,0
1639814240.136,977.539,-81.543,-93.262,-246.094,0.000,0
1639814240.140,898.926,-83.496,-103.027,-222.656,0.000,0
1639814240.144,-922.363,-85.938,-124.512,-275.391,0.000,0
1639814240.147,515.625,-96.680,-114.258,-379.883,0.000,0
1639814240.151,-873.535,-107.910,-98.633,-400.879,0.000,0
1639814240.155,-1000.000,-112.305,-105.957,-396.484,0.000,0
1639814240.159,-949.707,-92.773,-98.633,-361.816,0.000,0
1639814240.162,-1000.000,-92.285,-112.793,-405.273,0.000,0
1639814240.166,-1000.000,-115.234,-130.371,-511.719,0.000,0
1639814240.170,-1000.000,-123.047,-131.348,-530.762,0.000,0
1639814240.174,-1000.000,-120.605,-139.648,-527.832,0.000,0
1639814240.178,-1000.000,-109.863,-142.578,-527.344,0.000,0
1639814240.181,-1000.000,-121.094,-162.598,-538.086,0.000,0
1639814240.185,-1000.000,-125.000,-160.645,-601.562,0.000,0
1639814240.189,-1000.000,-102.539,-134.766,-578.125,0.000,0
1639814240.193,-1000.000,-85.938,-125.977,-459.961,0.000,0
1639814240.197,-1000.000,-55.176,-120.605,-357.422,0.000,0
1639814240.201,-1000.000,-39.551,-119.629,-299.316,0.000,0
1639814240.204,-1000.000,-47.363,-105.957,-320.312,0.000,0
1639814240.208,-1000.000,-59.082,-91.797,-285.645,0.000,0
1639814240.212,-1000.000,-46.875,-91.309,-227.051,0.000,0
1639814240.216,-1000.000,-20.508,-85.938,-181.152,0.000,0
1639814240.220,-1000.000,-13.672,-81.055,-145.508,0.000,0
1639814240.224,-1000.000,-33.691,-86.914,-189.941,0.000,0
1639814240.228,-1000.000,-41.016,-78.613,-211.914,0.000,0
1639814240.231,-1000.000,-26.367,-67.383,-173.340,0.000,0
1639814240.235,-1000.000,-10.254,-58.594,-143.555,0.000,0
1639814240.239,-1000.000,0.000,-70.801,-136.719,0.000,0
1639814240.243,-1000.000,-17.090,-86.426,-187.988,0.000,0
1639814240.247,-1000.000,-25.879,-63.965,-237.305,0.000,0
1639814240.251,-1000.000,-24.902,-56.152,-189.453,0.000,0
1639814240.255,-1000.000,-18.066,-63.965,-124.512,0.000,0
1639814240.258,-1000.000,-5.371,-76.172,-100.586,0.000,0
1639814240.262,-1000.000,-14.648,-84.961,-179.199,0.000,0
1639814240.266,-1000.000,-28.320,-76.172,-227.539,0.000,0
1639814240.270,-1000.000,-19.531,-69.824,-183.594,0.000,0
1639814240.274,-1000.000,-18.066,-58.594,-125.488,0.000,0
1639814240.277,-1000.000,-20.508,-45.410,-41.016,0.000,0
1639814240.281,-1000.000,-21.973,-59.082,-109.863,0.000,0
1639814240.285,-1000.000,-42.969,-72.754,-170.410,0.000,0
1639814240.289,-1000.000,-44.922,-67.871,-104.492,0.000,0
1639814240.293,-1000.000,-18.066,-48.828,-62.988,0.000,0
1639814240.297,-1000.000,-7.812,-56.641,-5.859,0.000,0
1639814240.301,-1000.000,-12.207,-71.777,-36.621,0.000,0
1639814240.304,-1000.000,-20.996,-56.641,-100.586,0.000,0
1639814240.308,-989.746,-33.203,-48.828,-68.359,0.000,0
1639814240.312,-1000.000,-20.020,-44.434,-32.227,0.000,0
1639814240.316,-954.102,-1.465,-46.387,18.066,0.000,0
1639814240.320,-848.633,-17.090,-61.035,14.160,0.000,0
1639814240.324,-993.164,-33.203,-62.012,-42.480,0.000,0
1639814240.327,-937.012,-25.391,-47.852,-25.879,0.000,0
1639814240.331,-1000.000,-20.508,-33.691,10.254,0.000,0
1639814240.335,-296.387,-8.789,-29.785,44.434,0.000,0
1639814240.339,870.117,-6.348,-50.293,44.434,0.000,0
1639814240.343,-429.199,-37.598,-74.707,-23.438,0.000,0
1639814240.347,-1000.000,-43.457,-65.430,-28.320,0.000,0
1639814240.350,-999.023,-15.625,-36.133,29.785,0.000,0
1639814240.354,-51.758,2.930,-28.320,86.914,0.000,0
1639814240.358,-860.840,-9.766,-56.641,85.938,0.000,0
1639814240.362,613.770,-23.926,-76.172,8.301,0.000,0
1639814240.366,-883.301,-16.113,-60.059,2.930,0.000,0
1639814240.370,-522.949,-16.113,-40.527,66.895,0.000,0
1639814240.373,910.645,-30.762,-53.223,118.164,0.000,0
1639814240.377,970.703,-28.809,-65.918,122.070,0.000,0
1639814240.381,992.676,-18.555,-52.246,22.461,0.000,0
1639814240.385,217.285,-24.902,-49.316,-12.695,0.000,0
1639814240.389,46.387,-34.180,-28.809,45.410,0.000,0
1639814240.393,981.445,-19.531,-18.555,100.098,0.000,0
1639814240.396,985.352,-1.465,-35.156,104.492,0.000,0
1639814240.400,946.777,-23.438,-49.316,38.086,0.000,0
1639814240.404,848.633,-31.250,-41.016,11.230,0.000,0
1639814240.408,880.371,-17.578,-34.180,46.387,0.000,0
1639814240.412,986.816,-8.789,-50.781,73.730,0.000,0
1639814240.416,959.473,-5.859,-62.012,85.938,0.000,0
1639814240.419,967.285,-29.785,-70.801,41.504,0.000,0
1639814240.423,966.309,-29.297,-47.852,14.160,0.000,0
1639814240.427,966.309,-6.836,-20.996,64.453,0.000,0
1639814240.431,966.309,-4.395,-35.645,101.074,0.000,0
1639814240.435,966.797,-19.531,-55.664,106.445,0.000,0
1639814240.439,966.309,-29.785,-59.082,58.594,0.000,0
1639814240.442,966.309,-21.484,-45.410,10.254,0.000,0
1639814240.446,966.309,-16.113,-38.086,47.363,0.000,0
1639814240.450,966.309,-5.371,-27.344,66.895,0.000,0
1639814240.454,966.309,4.883,-26.367,97.656,0.000,0
1639814240.458,966.797,-8.301,-56.152,87.402,0.000,0
1639814240.461,966.797,-41.504,-65.430,31.250,0.000,0
1639814240.465,966.309,-38.086,-43.945,37.598,0.000,0
1639814240.469,966.309,-9.766,-23.438,62.988,0.000,0
1639814240.473,966.309,-5.371,-39.062,96.680,0.000,0
1639814240.477,966.309,-17.578,-48.828,61.523,0.000,0
1639814240.481,966.309,-31.250,-44.922,2.441,0.000,0
1639814240.484,966.309,-19.043,-37.109,5.859,0.000,0
1639814240.488,966.309,-19.043,-41.504,35.645,0.000,1
1639814240.492,966.309,-9.277,-32.227,90.332,0.000,0
1639814240.496,966.309,-3.418,-22.461,65.430,0.000,0
1639814240.500,966.309,-30.273,-44.434,-11.719,0.000,0
1639814240.504,966.309,-36.133,-49.805,-5.371,0.000,0
1639814240.507,966.309,-34.668,-51.758,26.367,0.000,0
1639814240.511,966.309,-20.996,-45.898,51.270,0.000,0
1639814240.515,966.797,-12.695,-45.410,26.855,0.000,0
1639814240.519,966.309,-30.762,-47.852,-35.645,0.000,0
1639814240.523,966.309,-25.879,-20.996,-20.996,0.000,0
1639814240.526,966.797,-15.625,-6.348,19.531,0.000,0
1639814240.530,966.797,-14.160,-31.738,54.199,0.000,0
1639814240.534,966.309,-24.414,-68.359,53.223,0.000,0
1639814240.538,966.309,-42.969,-67.383,-16.113,0.000,0
1639814240.542,966.309,-24.902,-26.367,-20.020,0.000,0
1639814240.545,966.797,-13.184,-14.160,5.859,0.000,0
1639814240.549,966.309,-22.949,-46.875,45.898,0.000,0
1639814240.553,966.309,-15.625,-58.105,71.289,0.000,0
1639814240.557,966.309,-11.719,-37.598,-18.066,0.000,0
1639814240.561,966.309,-30.273,-31.250,-46.875,0.000,0
1639814240.565,966.309,-37.109,-32.715,3.418,0.000,0
1639814240.568,966.309,-16.113,-23.438,45.898,0.000,0
1639814240.572,966.309,-10.742,-41.504,72.754,0.000,0
1639814240.577,966.797,-28.320,-56.641,16.602,0.000,0
1639814240.580,966.309,-33.203,-41.016,-44.434,0.000,0
1639814240.584,966.797,-33.691,-31.250,-22.949,0.000,0
1639814240.588,966.797,-27.832,-26.855,21.973,0.000,0
1639814240.592,966.309,-13.184,-45.410,73.730,0.000,0
1639814240.596,966.309,-42.969,-58.105,37.109,0.000,0
1639814240.600,966.309,-55.664,-33.691,-6.348,0.000,0
1639814240.603,966.309,-34.180,-32.715,11.719,0.000,0
1639814240.607,966.309,-30.762,-42.480,28.320,0.000,0
1639814240.611,966.309,-23.926,-50.293,70.801,0.000,0
1639814240.615,966.309,-20.020,-47.363,39.062,0.000,0
1639814240.619,966.309,-34.668,-35.645,-18.555,0.000,0
1639814240.623,966.309,-29.297,-45.898,-1.465,0.000,0
1639814240.627,966.309,-12.207,-45.898,19.043,0.000,0
1639814240.631,966.797,-7.324,-37.109,31.250,0.000,0
1639814240.634,966.797,-25.391,-49.316,7.812,0.000,0
1639814240.638,966.797,-42.969,-52.734,-28.320,0.000,0
1639814240.642,966.309,-34.668,-39.551,-9.277,0.000,0
1639814240.646,966.309,-21.973,-36.621,11.230,0.000,0
1639814240.650,966.309,-0.488,-33.691,40.039,0.000,0
1639814240.654,966.309,-18.555,-57.617,13.184,0.000,0
1639814240.657,966.309,-36.133,-54.688,-44.922,0.000,0
1639814240.661,966.309,-9.766,-15.137,-36.133,0.000,0
1639814240.665,966.309,-10.742,-50.293,-8.789,0.000,0
1639814240.669,966.797,-12.207,-68.359,29.297,0.000,0
1639814240.673,966.309,-14.648,-52.246,-15.137,0.000,0
1639814240.677,966.309,-25.879,-39.551,-59.082,0.000,0
1639814240.681,966.309,-37.598,-17.578,-25.879,0.000,0
1639814240.685,966.797,-45.410,-28.809,-29.297,0.000,0
1639814240.688,962.891,-31.738,-37.109,-0.488,0.000,0
1639814240.692,965.820,-20.020,-44.434,-19.043,0.000,0
1639814240.696,983.887,-33.691,-59.570,-91.797,0.000,0
1639814240.700,798.828,-53.711,-46.387,-69.824,0.000,0
1639814240.704,828.125,-35.156,-26.855,-45.898,0.000,0
1639814240.707,993.164,-19.043,-31.738,-2.441,0.000,0
1639814240.711,953.125,-29.785,-56.641,23.926,0.000,0
1639814240.716,981.934,-46.387,-57.129,-56.641,0.000,0
1639814240.720,909.668,-47.852,-35.645,-84.961,0.000,0
1639814240.724,861.816,-37.109,-34.180,-57.617,0.000,0
1639814240.727,965.332,-30.762,-36.133,5.371,0.000,0
1639814240.731,938.477,-25.879,-48.340,37.109,0.000,0
1639814240.735,-954.590,-30.762,-55.664,-19.531,0.000,0
1639814240.739,565.430,-35.156,-38.574,-53.711,0.000,0
1639814240.743,87.891,-45.898,-51.758,-27.832,0.000,0
1639814240.747,768.066,-39.062,-59.082,-20.020,0.000,0
1639814240.750,974.609,-8.301,-40.039,-32.715,0.000,0
1639814240.754,-946.289,-20.020,-38.086,-70.801,0.000,0
1639814240.758,418.457,-35.645,-32.227,-99.121,0.000,0
1639814240.762,-498.047,-32.227,-33.203,-66.406,0.000,0
1639814240.766,449.707,-26.855,-27.832,-27.832,0.000,0
1639814240.770,-987.793,-16.602,-37.109,19.043,0.000,0
1639814240.774,-972.656,-27.344,-57.617,-37.598,0.000,0
1639814240.777,534.668,-41.016,-46.875,-83.008,0.000,0
1639814240.781,-569.336,-37.598,-54.688,-47.852,0.000,0
1639814240.785,236.328,-30.273,-70.312,-27.344,0.000,0
1639814240.789,-977.539,-19.531,-52.734,19.043,0.000,0
1639814240.793,-981.445,-18.066,-46.875,-17.578,0.000,0
1639814240.797,541.504,-28.320,-45.898,-86.914,0.000,0
1639814240.800,-893.066,-39.551,-41.016,-70.312,0.000,0
1639814240.804,-246.582,-42.480,-57.129,-30.762,0.000,0
1639814240.808,-991.211,-16.113,-43.945,-1.953,0.000,0
1639814240.812,-977.051,-18.555,-51.270,-32.227,0.000,0
1639814240.816,651.367,-41.992,-62.988,-68.848,0.000,0
1639814240.820,-636.719,-37.598,-35.156,-45.410,0.000,0
1639814240.824,-136.719,-34.668,-30.762,-23.438,0.000,0
1639814240.827,-988.281,-38.574,-43.945,13.184,0.000,0
1639814240.831,993.652,-53.711,-67.871,-0.488,0.000,0
1639814240.835,799.316,-50.781,-70.801,-71.289,0.000,0
1639814240.839,-553.223,-25.879,-37.109,-105.469,0.000,0
1639814240.843,-298.828,-26.855,-30.273,-57.129,0.000,0
1639814240.847,998.535,-19.531,-42.480,10.742,0.000,0
1639814240.850,972.656,-20.508,-66.895,-8.301,0.000,0
1639814240.854,907.715,-38.086,-72.266,-64.941,0.000,0
1639814240.858,-400.391,-43.457,-53.711,-43.457,0.000,0
1639814240.862,-695.312,-42.969,-47.363,-3.906,0.000,0
1639814240.866,749.023,-25.879,-34.668,49.316,0.000,0
1639814240.870,-988.770,-26.367,-43.457,58.105,0.000,0
1639814240.874,983.887,-45.898,-73.730,-20.996,0.000,0
1639814240.877,-291.016,-55.664,-66.406,-30.762,0.000,0
1639814240.881,-655.762,-49.316,-33.203,6.836,0.000,0
1639814240.885,829.590,-29.297,-40.039,27.344,0.000,0
1639814240.889,980.957,-26.367,-57.129,50.781,0.000,0
1639814240.893,-971.680,-33.691,-50.781,-13.184,0.000,0
1639814240.897,6.836,-34.668,-36.621,-53.223,0.000,0
1639814240.900,-757.812,-30.762,-39.062,-34.668,0.000,0
1639814240.904,577.637,-33.691,-58.594,14.160,0.000,0
1639814240.908,-993.164,-27.832,-46.875,58.594,0.000,0
1639814240.912,-976.562,-27.344,-45.898,-13.184,0.000,0
1639814240.916,435.547,-35.645,-49.316,-57.617,0.000,0
1639814240.920,-754.883,-53.223,-57.129,0.488,0.000,0
1639814240.923,156.250,-52.246,-51.758,10.742,0.000,0
1639814240.927,-966.309,-23.926,-45.898,1.465,0.000,0
1639814240.931,-953.125,-32.715,-70.801,-48.828,0.000,0
1639814240.935,392.578,-53.223,-83.496,-87.402,0.000,0
1639814240.939,-532.227,-45.410,-56.152,-64.941,0.000,0
1639814240.943,420.410,-34.668,-39.551,-15.137,0.000,0
1639814240.947,-988.770,-18.066,-58.594,44.922,0.000,0
1639814240.951,-985.840,-25.879,-61.035,-9.766,0.000,0
1639814240.955,584.961,-47.852,-47.363,-65.430,0.000,0
1639814240.958,-743.652,-45.410,-24.414,-26.855,0.000,0
1639814240.962,-56.641,-36.621,-28.320,-2.441,0.000,0
1639814240.966,-970.703,-29.785,-55.176,38.574,0.000,0
1639814240.970,-989.746,-42.480,-68.359,18.555,0.000,0
1639814240.974,613.770,-53.223,-53.711,-74.219,0.000,0
1639814240.978,-830.078,-41.504,-38.086,-56.152,0.000,0
1639814240.981,-403.809,-33.691,-45.898,7.812,0.000,0
1639814240.985,938.477,-14.648,-37.109,28.809,0.000,0
1639814240.989,-928.711,-15.137,-50.781,-1.953,0.000,0
1639814240.993,524.414,-39.551,-57.617,-70.312,0.000,0
1639814240.997,-939.453,-37.598,-39.062,-51.758,0.000,0
1639814241.001,-581.543,-26.855,-35.645,-10.742,0.000,0
1639814241.005,783.203,-23.438,-35.645,30.273,0.000,0
1639814241.009,-924.316,-29.297,-55.664,46.387,0.000,0
1639814241.013,632.324,-49.316,-70.801,-21.484,0.000,0
1639814241.016,-774.902,-47.363,-47.363,-44.922,0.000,0
1639814241.020,-779.297,-35.645,-26.855,-42.480,0.000,0
1639814241.024,587.891,-39.551,-49.316,13.184,0.000,0
1639814241.028,-939.941,-37.598,-75.684,23.438,0.000,0
1639814241.032,795.898,-33.203,-56.152,-56.152,0.000,0
1639814241.036,-505.859,-45.410,-39.551,-59.082,0.000,0
1639814241.040,-980.957,-44.922,-41.504,-33.691,0.000,0
1639814241.044,349.609,-27.344,-44.922,14.648,0.000,0
1639814241.048,-914.551,-20.996,-53.711,59.082,0.000,0
1639814241.052,791.016,-37.598,-67.383,-14.648,0.000,0
1639814241.056,-438.965,-45.898,-63.965,-62.988,0.000,0
1639814241.060,-1000.000,-43.457,-49.316,-43.945,0.000,0
1639814241.063,11.230,-28.320,-48.828,-11.230,0.000,0
1639814241.067,-937.988,-23.926,-61.523,23.438,0.000,0
1639814241.071,868.652,-43.945,-68.848,-22.461,0.000,0
1639814241.075,-273.926,-37.598,-41.504,-67.871,0.000,0
1639814241.079,-1000.000,-30.273,-24.414,-51.270,0.000,0
1639814241.083,-125.488,-36.133,-29.297,-23.438,0.000,0
1639814241.087,-981.445,-40.527,-37.109,16.602,0.000,0
1639814241.091,980.469,-49.316,-46.875,-20.996,0.000,0
1639814241.094,-78.613,-51.270,-51.758,-94.238,0.000,0
1639814241.098,-1000.000,-48.340,-57.129,-63.965,0.000,0
1639814241.102,-325.195,-46.875,-56.152,-10.742,0.000,0
1639814241.106,939.941,-38.574,-50.781,33.203,0.000,0
1639814241.110,-955.566,-47.363,-63.477,-6.836,0.000,0
1639814241.114,-8.789,-62.012,-56.152,-60.547,0.000,0
1639814241.117,-1000.000,-52.246,-43.457,-41.504,0.000,0
1639814241.121,-490.723,-43.457,-40.039,-41.992,0.000,0
1639814241.125,795.410,-27.832,-36.621,-1.953,0.000,0
1639814241.129,-899.414,-43.457,-83.984,-22.461,0.000,0
1639814241.133,57.617,-56.152,-81.055,-84.961,0.000,0
1639814241.137,-1000.000,-34.668,-51.270,-71.777,0.000,0
1639814241.141,-673.828,-41.992,-58.105,-40.527,0.000,0
1639814241.145,593.750,-40.039,-50.293,11.719,0.000,0
1639814241.149,-900.879,-40.039,-59.082,-18.555,0.000,0
1639814241.152,68.359,-59.082,-61.523,-87.891,0.000,0
1639814241.156,-1000.000,-56.641,-57.129,-64.941,0.000,0
1639814241.160,-937.012,-50.293,-68.359,-23.438,0.000,0
1639814241.164,221.680,-26.855,-41.504,5.859,0.000,0
1639814241.168,-814.941,-25.879,-34.180,-32.715,0.000,0
1639814241.172,256.348,-47.852,-60.547,-88.867,0.000,0
1639814241.175,-1000.000,-48.828,-57.129,-62.012,0.000,0
1639814241.179,-969.727,-39.551,-45.898,-20.020,0.000,0
1639814241.183,163.086,-23.438,-43.457,19.043,0.000,0
1639814241.187,-840.332,-28.809,-58.594,-13.184,0.000,0
1639814241.191,431.641,-46.387,-69.824,-82.520,0.000,0
1639814241.195,-875.488,-45.898,-52.246,-52.246,0.000,0
1639814241.199,-1000.000,-49.805,-55.176,-14.648,0.000,0
1639814241.202,-11.230,-57.617,-62.012,15.625,0.000,0
1639814241.206,-884.766,-36.133,-53.711,15.625,0.000,0
1639814241.210,650.391,-21.973,-52.246,-76.172,0.000,0
1639814241.214,-649.902,-37.109,-64.941,-81.055,0.000,0
1639814241.218,-1000.000,-37.109,-57.617,-26.855,0.000,0
1639814241.222,-38.574,-28.320,-32.715,-9.766,0.000,0
1639814241.226,-915.527,-24.902,-42.480,-3.418,0.000,0
1639814241.230,778.809,-31.250,-67.383,-51.758,0.000,0
1639814241.233,-467.773,-42.969,-61.035,-88.867,0.000,0
1639814241.237,-1000.000,-33.691,-43.945,-62.012,0.000,0
1639814241.241,-116.699,-22.949,-30.762,-25.391,0.000,0
1639814241.245,-943.359,-24.902,-46.387,12.695,0.000,0
1639814241.249,834.961,-42.480,-86.914,-31.738,0.000,0
1639814241.253,-328.125,-40.039,-62.012,-77.637,0.000,0
1639814241.256,-1000.000,-25.391,-28.320,-52.734,0.000,0
1639814241.260,-325.684,-29.785,-39.062,-26.855,0.000,0
1639814241.264,924.805,-20.996,-61.523,9.766,0.000,0
1639814241.268,-961.914,-22.461,-81.055,-30.273,0.000,0
1639814241.272,-29.785,-29.785,-68.848,-65.918,0.000,0
1639814241.276,-1000.000,-43.457,-44.922,-30.762,0.000,0
1639814241.280,-478.516,-44.922,-33.203,-6.836,0.000,0
1639814241.284,842.773,-18.555,-32.715,28.809,0.000,0
1639814241.288,-971.191,-22.461,-43.945,17.578,0.000,0
1639814241.292,-88.379,-48.340,-58.594,-62.988,0.000,0
1639814241.295,-1000.000,-50.293,-63.477,-45.410,0.000,0
1639814241.299,-667.969,-28.320,-44.434,7.812,0.000,0
1639814241.303,575.195,-14.160,-43.945,50.781,0.000,0
1639814241.307,-844.238,-30.273,-72.754,42.969,0.000,0
1639814241.311,118.652,-44.922,-62.988,-30.273,0.000,0
1639814241.315,-1000.000,-34.180,-43.945,-44.922,0.000,0
1639814241.319,-888.184,-18.555,-38.086,-14.160,0.000,0
1639814241.323,250.977,-17.090,-38.086,15.137,0.000,0
1639814241.327,-826.660,-21.973,-59.570,-4.883,0.000,0
1639814241.331,161.621,-32.715,-61.035,-64.941,0.000,0
1639814241.334,-1000.000,-37.109,-43.945,-53.711,0.000,0
1639814241.338,-1000.000,-40.039,-45.410,-1.953,0.000,0
1639814241.342,-11.719,-28.320,-55.664,49.316,0.000,0
1639814241.346,-819.336,-21.973,-57.617,55.176,0.000,0
1639814241.350,267.578,-29.785,-49.316,-17.578,0.000,0
1639814241.354,-998.047,-38.086,-62.500,-44.922,0.000,0
1639814241.357,-1000.000,-26.855,-51.270,-1.465,0.000,0
1639814241.361,-80.566,-12.695,-32.715,34.180,0.000,0
1639814241.366,-834.961,-20.508,-57.129,9.766,0.000,0
1639814241.369,379.883,-43.457,-77.148,-63.965,0.000,0
1639814241.373,-904.785,-57.617,-52.246,-68.848,0.000,0
1639814241.377,-1000.000,-50.293,-27.832,-27.832,0.000,0
1639814241.381,-207.520,-41.016,-45.898,11.719,0.000,0
1639814241.385,-910.156,-41.992,-67.383,53.711,0.000,0
1639814241.389,631.348,-49.805,-60.059,-9.277,0.000,0
1639814241.392,-650.391,-45.410,-45.898,-69.824,0.000,0
1639814241.396,-1000.000,-47.363,-54.199,-20.020,0.000,0
1639814241.400,-408.203,-38.086,-56.641,29.785,0.000,0
1639814241.404,-966.309,-12.207,-46.387,14.648,0.000,1
1639814241.408,572.754,-32.227,-68.848,-30.762,0.000,0
1639814241.412,-779.297,-54.688,-59.570,-57.617,0.000,0
1639814241.416,-1000.000,-42.480,-38.086,-32.227,0.000,0
1639814241.420,-617.676,-26.855,-36.621,15.625,0.000,0
1639814241.424,769.531,-25.879,-45.898,31.250,0.000,0
1639814241.427,881.348,-39.551,-53.711,-8.301,0.000,0
1639814241.431,-472.168,-41.504,-49.316,-56.641,0.000,0
1639814241.435,-1000.000,-31.250,-43.457,-18.555,0.000,0
1639814241.439,-729.980,-33.203,-40.527,29.297,0.000,0
1639814241.443,556.152,-35.645,-48.828,51.758,0.000,0
1639814241.447,-971.680,-21.484,-54.688,-6.348,0.000,0
1639814241.450,-236.328,-32.227,-35.645,-66.895,0.000,0
1639814241.454,-1000.000,-44.434,-30.762,-34.180,0.000,0
1639814241.459,-721.191,-28.320,-28.809,-20.508,0.000,0
1639814241.462,518.066,-14.648,-21.973,20.508,0.000,0
1639814241.466,-860.840,-19.531,-49.316,2.441,0.000,0
1639814241.470,-13.672,-34.668,-68.848,-53.223,0.000,0
1639814241.474,-1000.000,-36.133,-46.875,-29.297,0.000,0
1639814241.478,-965.332,-37.598,-32.227,-3.906,0.000,0
1639814241.482,142.578,-29.297,-33.203,29.785,0.000,0
1639814241.485,-836.914,-27.832,-56.641,12.695,0.000,0
1639814241.489,41.504,-34.180,-51.270,-45.410,0.000,0
1639814241.493,-1000.000,-25.391,-17.578,-33.203,0.000,0
1639814241.497,-1000.000,-26.855,-14.160,18.066,0.000,0
1639814241.501,32.227,-34.668,-43.945,70.801,0.000,0
1639814241.505,-815.918,-29.785,-60.059,36.133,0.000,0
1639814241.509,212.891,-25.391,-39.062,-36.133,0.000,0
1639814241.513,-1000.000,-33.691,-27.832,-31.250,0.000,0
1639814241.517,-1000.000,-34.180,-28.809,-8.789,0.000,0
1639814241.520,-79.102,-26.855,-35.645,20.996,0.000,0
1639814241.524,-820.801,-24.414,-46.875,7.812,0.000,0
1639814241.528,242.188,-32.227,-55.664,-38.574,0.000,0
1639814241.532,-994.141,-46.875,-69.824,-32.715,0.000,0
1639814241.536,-1000.000,-34.668,-43.457,-12.695,0.000,0
1639814241.540,-216.309,-13.184,-26.367,20.020,0.000,0
1639814241.543,-855.469,-20.996,-76.172,46.875,0.000,0
1639814241.547,395.508,-34.180,-80.078,-11.719,0.000,0
1639814241.551,-891.602,-35.645,-42.480,-36.133,0.000,0
1639814241.555,-1000.000,-39.062,-32.227,-5.371,0.000,0
1639814241.559,-429.688,-41.504,-31.738,25.391,0.000,0
1639814241.563,-980.469,-43.457,-47.363,34.180,0.000,0
1639814241.567,572.266,-50.781,-55.664,-7.812,0.000,0
1639814241.571,-777.344,-46.387,-50.781,-17.090,0.000,0
1639814241.574,-1000.000,-45.410,-63.965,2.930,0.000,0
1639814241.578,-483.887,-35.645,-47.852,22.949,0.000,0
1639814241.582,936.523,-19.043,-33.691,35.645,0.000,0
1639814241.586,768.555,-36.621,-58.594,-23.438,0.000,0
1639814241.590,-571.289,-40.039,-51.270,-53.711,0.000,0
1639814241.594,-1000.000,-31.738,-34.668,-19.531,0.000,0
1639814241.598,-604.492,-25.391,-27.832,6.348,0.000,0
1639814241.602,714.844,-15.137,-37.109,42.480,0.000,0
1639814241.605,988.281,-25.879,-49.316,-12.207,0.000,0
1639814241.609,-253.418,-31.738,-33.691,-58.105,0.000,0
1639814241.613,-1000.000,-26.855,-37.109,4.395,0.000,0
1639814241.617,-687.012,-27.832,-51.758,38.086,0.000,0
1639814241.621,599.121,-29.785,-60.059,54.199,0.000,0
1639814241.625,-918.945,-24.902,-73.242,16.602,0.000,0
1639814241.628,-88.379,-21.973,-59.570,-40.527,0.000,0
1639814241.632,-1000.000,-24.414,-40.527,-9.766,0.000,0
1639814241.636,-692.383,-20.996,-24.902,20.996,0.000,0
1639814241.640,550.781,-18.066,-29.297,47.363,0.000,0
1639814241.644,-846.191,-20.508,-41.016,29.297,0.000,0
1639814241.648,112.305,-38.086,-32.715,-36.621,0.000,0
1639814241.652,-1000.000,-36.621,-26.367,-38.086,0.000,0
1639814241.656,-854.004,-19.043,-38.086,12.207,0.000,0
1639814241.659,307.617,-17.090,-52.246,53.711,0.000,0
1639814241.663,-831.543,-29.785,-69.336,16.113,0.000,0
1639814241.667,205.078,-45.410,-78.125,-35.645,0.000,0
1639814241.671,-1000.000,-37.109,-42.480,-41.016,0.000,0
1639814241.675,-990.234,-25.391,-27.344,-30.762,0.000,0
1639814241.679,91.309,-19.043,-31.250,6.836,0.000,0
1639814241.682,-833.008,-13.672,-40.039,4.883,0.000,0
1639814241.686,329.590,-26.855,-44.922,-51.270,0.000,0
1639814241.691,-1000.000,-33.691,-41.016,-42.969,0.000,0
1639814241.695,-969.727,-25.879,-49.316,-8.301,0.000,0
1639814241.698,149.902,-26.367,-49.316,25.391,0.000,0
1639814241.702,-865.723,-23.926,-45.410,10.254,0.000,0
1639814241.706,469.727,-25.879,-50.293,-31.250,0.000,0
1639814241.710,-807.129,-37.598,-48.828,-26.855,0.000,0
1639814241.714,-1000.000,-38.086,-40.039,0.488,0.000,0
1639814241.718,-226.074,-21.973,-33.691,41.504,0.000,0
1639814241.721,-918.457,-15.625,-54.688,32.227,0.000,0
1639814241.725,638.672,-32.227,-86.914,-53.223,0.000,0
1639814241.729,-633.789,-27.832,-60.547,-72.266,0.000,0
1639814241.733,-1000.000,-28.320,-42.969,-24.902,0.000,0
1639814241.737,-321.289,-26.367,-38.086,-7.812,0.000,0
1639814241.741,997.559,-17.578,-37.109,31.738,0.000,0
1639814241.745,817.383,-25.391,-51.758,-11.719,0.000,0
1639814241.749,-436.035,-31.250,-42.969,-58.594,0.000,0
1639814241.753,-1000.000,-32.715,-52.246,-7.324,0.000,0
1639814241.757,-546.875,-38.574,-66.895,33.203,0.000,0
1639814241.760,804.688,-27.344,-55.664,43.457,0.000,0
1639814241.764,942.871,-22.461,-60.547,-20.508,0.000,0
1639814241.768,-314.941,-44.434,-83.984,-44.922,0.000,0
1639814241.772,-1000.000,-39.062,-71.289,-10.742,0.000,0
1639814241.776,-633.789,-13.184,-33.691,-20.996,0.000,0
1639814241.780,654.297,-10.742,-33.203,-3.418,0.000,0
1639814241.784,-928.711,-28.809,-51.270,-20.020,0.000,0
1639814241.788,-121.094,-41.504,-44.922,-54.688,0.000,0
1639814241.792,-1000.000,-30.273,-17.578,-19.531,0.000,0
1639814241.796,-811.523,-25.879,-21.484,6.348,0.000,0
1639814241.799,381.348,-20.996,-42.480,12.207,0.000,0
1639814241.803,-859.375,-24.902,-62.500,-28.809,0.000,0
1639814241.807,-25.879,-41.992,-57.129,-78.613,0.000,0
1639814241.811,-1000.000,-42.969,-57.617,-51.270,0.000,0
1639814241.815,-994.141,-39.062,-61.035,25.391,0.000,0
1639814241.819,62.500,-21.484,-45.898,37.598,0.000,0
1639814241.822,-814.453,-17.578,-50.293,-45.410,0.000,0
1639814241.826,142.090,-38.086,-56.152,-77.148,0.000,0
1639814241.831,-1000.000,-40.039,-37.598,-38.086,0.000,0
1639814241.835,-1000.000,-35.645,-26.855,-10.254,0.000,0
1639814241.838,8.789,-31.250,-32.227,11.230,0.000,0
1639814241.842,-817.383,-33.203,-53.223,-19.043,0.000,0
1639814241.846,209.473,-44.922,-58.105,-59.570,0.000,0
1639814241.850,-1000.000,-52.734,-47.363,-36.621,0.000,0
1639814241.854,-1000.000,-50.781,-48.340,-20.996,0.000,0
1639814241.858,-136.230,-50.781,-59.570,27.344,0.000,0
1639814241.861,-837.891,-47.852,-68.359,27.832,0.000,0
1639814241.865,355.957,-35.156,-51.270,-48.340,0.000,0
1639814241.869,-918.457,-32.715,-43.945,-46.875,0.000,0
1639814241.873,-1000.000,-32.227,-40.039,-22.949,0.000,0
1639814241.877,-282.715,-30.273,-35.645,0.000,0.000,0
1639814241.881,-890.137,-25.879,-50.781,9.766,0.000,0
1639814241.885,485.352,-42.480,-77.148,-49.805,0.000,0
1639814241.889,-825.684,-50.781,-73.242,-51.758,0.000,0
1639814241.893,-1000.000,-40.527,-54.688,-14.160,0.000,0
1639814241.896,-436.035,-35.156,-45.410,0.000,0.000,0
1639814241.900,-990.234,-29.785,-55.664,29.785,0.000,0
1639814241.904,562.012,-48.340,-79.590,-12.207,0.000,0
1639814241.908,-769.043,-49.316,-56.152,-40.039,0.000,0
1639814241.912,-1000.000,-37.109,-35.645,-19.043,0.000,0
1639814241.916,-540.527,-36.133,-42.480,-3.906,0.000,0
1639814241.919,819.824,-31.250,-52.246,27.832,0.000,0
1639814241.924,903.809,-32.227,-59.082,-20.996,0.000,0
1639814241.928,-383.789,-29.785,-52.734,-49.805,0.000,0
1639814241.931,-1000.000,-33.203,-68.848,-16.113,0.000,0
1639814241.935,-671.387,-38.086,-66.406,23.438,0.000,0
1639814241.939,642.578,-26.855,-43.945,41.016,0.000,0
1639814241.943,979.980,-25.879,-49.316,-16.602,0.000,0
1639814241.947,-279.785,-45.898,-57.617,-33.691,0.000,0
1639814241.951,-1000.000,-44.434,-48.340,-13.184,0.000,0
1639814241.954,-720.215,-20.508,-43.945,-18.066,0.000,0
1639814241.958,515.137,-15.137,-58.594,23.438,0.000,0
1639814241.962,-871.094,-29.785,-62.500,-12.207,0.000,0
1639814241.966,-38.086,-42.480,-51.270,-68.848,0.000,0
1639814241.970,-1000.000,-31.250,-32.227,-23.926,0.000,0
1639814241.974,-929.199,-28.320,-33.691,7.812,0.000,0
1639814241.978,170.410,-26.367,-41.992,45.410,0.000,0
1639814241.982,-827.637,-20.996,-53.223,23.438,0.000,0
1639814241.985,78.125,-34.180,-53.711,-54.199,0.000,0
1639814241.989,-1000.000,-38.574,-62.500,-36.133,0.000,0
1639814241.993,-1000.000,-34.180,-70.801,6.348,0.000,0
1639814241.997,0.000,-27.344,-50.781,23.926,0.000,0
1639814242.001,-816.895,-22.949,-50.293,0.488,0.000,0
1639814242.005,176.758,-39.551,-63.965,-52.246,0.000,0
1639814242.009,-1000.000,-43.945,-47.363,-35.156,0.000,0
1639814242.012,-1000.000,-32.227,-27.832,-11.230,0.000,0
1639814242.016,-64.453,-25.879,-45.898,2.930,0.000,0
1639814242.020,-821.777,-36.133,-65.918,-12.207,0.000,0
1639814242.024,279.785,-57.129,-74.707,-82.031,0.000,0
1639814242.028,-959.473,-38.574,-56.641,-87.891,0.000,0
1639814242.032,-1000.000,-20.508,-35.156,-44.434,0.000,0
1639814242.036,-319.336,-39.551,-55.176,5.371,0.000,0
1639814242.040,-892.090,-35.645,-67.383,25.391,0.000,0
1639814242.043,414.551,-29.785,-52.246,-25.391,0.000,0
1639814242.047,-895.996,-39.551,-42.969,-46.875,0.000,0
1639814242.051,-1000.000,-52.246,-63.965,-37.598,0.000,0
1639814242.055,-364.258,-41.016,-60.547,-3.906,0.000,0
1639814242.059,-948.730,-20.020,-35.645,16.113,0.000,0
1639814242.063,600.586,-41.992,-66.895,-36.621,0.000,0
1639814242.067,-729.980,-52.246,-68.848,-71.289,0.000,0
1639814242.071,-1000.000,-41.504,-37.598,-48.828,0.000,0
1639814242.075,-503.906,-33.691,-36.133,-3.906,0.000,0
1639814242.079,899.902,-31.250,-47.852,32.227,0.000,0
1639814242.082,780.762,-42.969,-72.754,-26.855,0.000,0
1639814242.086,-562.012,-48.340,-67.871,-64.453,0.000,0
1639814242.090,-1000.000,-38.086,-38.086,-20.996,0.000,0
1639814242.094,-659.668,-34.180,-38.086,0.977,0.000,0
1639814242.098,661.133,-29.785,-59.082,16.113,0.000,0
1639814242.102,958.496,-26.855,-59.082,-41.992,0.000,0
1639814242.105,-342.773,-40.527,-56.641,-75.195,0.000,0
1639814242.110,-1000.000,-55.176,-56.152,-28.320,0.000,0
1639814242.114,-775.879,-54.199,-60.547,-1.465,0.000,0
1639814242.118,478.516,-32.715,-55.176,0.000,0.000,0
1639814242.122,-922.363,-33.203,-63.965,-22.949,0.000,0
1639814242.125,-180.664,-52.734,-58.594,-58.105,0.000,0
1639814242.129,-1000.000,-53.711,-38.086,-31.738,0.000,0
1639814242.133,-966.309,-37.598,-35.156,-7.812,0.000,0
1639814242.137,176.270,-21.973,-28.320,20.020,0.000,0
1639814242.141,-907.715,-41.504,-69.336,28.809,0.000,0
1639814242.145,-173.828,-57.617,-83.984,-36.133,0.000,0
1639814242.148,-1000.000,-40.527,-44.922,-49.805,0.000,0
1639814242.152,-1000.000,-36.621,-44.434,-5.371,0.000,0
1639814242.157,-35.645,-26.367,-41.504,1.953,0.000,0
1639814242.161,-817.871,-27.832,-58.105,-34.668,0.000,0
1639814242.164,125.000,-46.387,-82.031,-76.660,0.000,0
1639814242.168,-1000.000,-46.387,-70.312,-58.105,0.000,0
1639814242.172,-1000.000,-41.016,-51.270,-17.090,0.000,0
1639814242.176,-75.195,-34.180,-56.641,16.602,0.000,0
1639814242.180,-835.449,-34.180,-71.777,-15.625,0.000,0
1639814242.184,183.105,-48.828,-68.848,-75.195,0.000,0
1639814242.187,-1000.000,-51.758,-53.223,-66.895,0.000,0
1639814242.191,-1000.000,-38.086,-34.668,-63.965,0.000,0
1639814242.195,-212.891,-30.273,-27.832,-30.762,0.000,0
1639814242.199,-845.703,-42.969,-55.176,9.277,0.000,0
1639814242.203,345.215,-56.641,-66.895,-37.109,0.000,0
1639814242.207,-927.734,-43.457,-39.551,-46.875,0.000,0
1639814242.211,-1000.000,-33.691,-43.945,-19.531,0.000,1
1639814242.215,-424.316,-32.715,-59.082,-2.930,0.000,0
1639814242.219,-950.195,-32.715,-63.965,2.930,0.000,0
1639814242.223,442.383,-50.293,-72.266,-46.387,0.000,0
1639814242.226,-895.508,-54.688,-50.781,-71.289,0.000,0
1639814242.230,-1000.000,-50.781,-55.664,-26.855,0.000,0
1639814242.234,-515.137,-42.480,-51.270,18.066,0.000,0
1639814242.238,914.551,-20.996,-29.785,29.297,0.000,0
1639814242.242,738.281,-32.715,-53.223,-40.039,0.000,0
1639814242.246,-614.258,-44.434,-55.176,-90.820,0.000,0
1639814242.250,-1000.000,-37.598,-39.551,-34.180,0.000,0
1639814242.254,-583.008,-28.809,-28.809,14.648,0.000,0
1639814242.258,776.855,-24.414,-37.109,22.461,0.000,0
1639814242.261,906.738,-40.039,-71.777,-7.324,0.000,0
1639814242.265,-415.039,-35.156,-72.754,-50.293,0.000,0
1639814242.269,-1000.000,-29.785,-48.340,-40.527,0.000,0
1639814242.273,-819.336,-36.133,-50.293,-2.441,0.000,0
1639814242.277,417.480,-32.227,-58.105,45.410,0.000,0
1639814242.281,-937.988,-24.414,-51.270,0.977,0.000,0
1639814242.285,-209.961,-35.156,-41.016,-53.711,0.000,0
1639814242.288,-1000.000,-39.551,-27.832,-18.555,0.000,0
1639814242.292,-886.719,-23.438,-33.691,17.578,0.000,0
1639814242.296,267.090,-15.625,-43.457,34.668,0.000,0
1639814242.300,-849.121,-28.320,-62.500,-22.461,0.000,0
1639814242.304,-16.113,-53.711,-69.824,-82.520,0.000,0
1639814242.308,-1000.000,-54.688,-43.457,-47.852,0.000,0
1639814242.312,-945.312,-42.969,-34.180,9.766,0.000,0
1639814242.316,152.344,-34.668,-42.969,34.668,0.000,0
1639814242.320,-857.910,-45.898,-77.148,3.906,0.000,0
1639814242.323,-18.066,-52.734,-77.148,-66.895,0.000,0
1639814242.327,-1000.000,-32.715,-36.621,-75.684,0.000,0
1639814242.331,-1000.000,-27.344,-41.016,-41.016,0.000,0
1639814242.335,-90.820,-28.320,-51.270,-7.812,0.000,0
1639814242.339,-818.359,-34.180,-62.988,-19.043,0.000,0
1639814242.343,149.902,-39.062,-69.336,-84.473,0.000,0
1639814242.347,-1000.000,-39.062,-42.969,-71.289,0.000,0
1639814242.351,-1000.000,-37.598,-39.551,-37.109,0.000,0
1639814242.355,-207.031,-22.949,-44.434,-8.789,0.000,0
1639814242.358,-834.473,-28.320,-54.688,9.277,0.000,0
1639814242.362,253.418,-51.758,-76.172,-61.035,0.000,0
1639814242.366,-993.652,-54.688,-80.078,-54.199,0.000,0
1639814242.370,-1000.000,-41.992,-56.152,-25.391,0.000,0
1639814242.374,-296.387,-23.438,-32.227,-22.461,0.000,0
1639814242.378,-890.625,-26.855,-52.734,5.859,0.000,0
1639814242.381,465.820,-41.504,-63.965,-67.383,0.000,0
1639814242.385,-843.750,-36.621,-43.457,-103.027,0.000,0
1639814242.389,-1000.000,-20.508,-37.109,-49.316,0.000,0
1639814242.393,-512.207,-21.973,-39.062,-33.203,0.000,0
1639814242.397,943.848,-22.949,-51.270,-27.832,0.000,0
1639814242.401,611.328,-20.996,-69.336,-59.570,0.000,0
1639814242.405,-763.184,-31.738,-42.480,-86.426,0.000,0
1639814242.409,-1000.000,-43.945,-43.457,-25.391,0.000,0
1639814242.412,-677.734,-41.016,-63.477,15.625,0.000,0
1639814242.416,709.961,-20.996,-42.480,23.926,0.000,0
1639814242.420,858.398,-22.949,-47.852,-24.902,0.000,0
1639814242.424,-521.973,-30.273,-46.387,-83.008,0.000,0
1639814242.428,-1000.000,-25.879,-31.738,-51.270,0.000,0
1639814242.432,-724.609,-20.996,-25.391,-24.902,0.000,0
1639814242.436,574.707,-20.996,-49.316,-3.418,0.000,0
1639814242.440,-998.535,-29.785,-71.289,-8.789,0.000,0
1639814242.444,-306.152,-38.086,-47.363,-57.129,0.000,0
1639814242.448,-1000.000,-36.133,-28.320,-49.805,0.000,0
1639814242.452,-888.672,-31.250,-28.320,-9.766,0.000,0
1639814242.455,259.766,-25.391,-40.527,30.762,0.000,0
1639814242.459,-880.371,-28.320,-72.266,-20.020,0.000,0
1639814242.463,-92.773,-37.109,-78.125,-103.516,0.000,0
1639814242.467,-1000.000,-40.039,-49.316,-74.707,0.000,0
1639814242.471,-978.516,-34.668,-37.598,-20.508,0.000,0
1639814242.475,90.332,-11.719,-34.180,22.949,0.000,0
1639814242.479,-831.543,-8.301,-63.477,-6.836,0.000,0
1639814242.483,25.391,-29.785,-58.105,-60.059,0.000,0
1639814242.487,-1000.000,-34.180,-29.785,-40.039,0.000,0
1639814242.491,-1000.000,-23.926,-41.992,-31.738,0.000,0
1639814242.495,-76.660,-16.602,-46.387,-5.371,0.000,0
1639814242.498,-819.824,-25.391,-54.199,-3.418,0.000,0
1639814242.502,96.680,-38.574,-68.848,-60.059,0.000,0
1639814242.506,-1000.000,-27.344,-40.039,-77.148,0.000,0
1639814242.510,-1000.000,-17.578,-18.066,-36.621,0.000,0
1639814242.514,-284.180,-30.273,-50.293,28.809,0.000,0
1639814242.518,-852.539,-39.062,-68.848,12.207,0.000,0
1639814242.521,261.230,-30.273,-38.574,-86.914,0.000,0
1639814242.525,-998.047,-28.320,-29.297,-84.961,0.000,0
1639814242.530,-1000.000,-25.879,-38.086,-28.809,0.000,0
1639814242.534,-304.688,-14.160,-38.574,10.742,0.000,0
1639814242.537,-876.953,-4.395,-55.176,22.949,0.000,0
1639814242.541,385.742,-16.602,-63.477,-32.715,0.000,0
1639814242.545,-916.504,-34.180,-42.969,-61.035,0.000,0
1639814242.549,-1000.000,-33.203,-34.180,-41.016,0.000,0
1639814242.553,-472.168,-27.344,-33.203,11.719,0.000,0
1639814242.557,-996.094,-28.320,-44.922,24.414,0.000,0
1639814242.561,511.719,-41.016,-58.105,-43.945,0.000,0
1639814242.564,-834.473,-38.574,-28.809,-80.078,0.000,0
1639814242.568,-1000.000,-24.902,-18.555,-53.711,0.000,0
1639814242.572,-634.766,-23.926,-14.648,-4.883,0.000,0
1639814242.576,764.160,-22.461,-35.156,31.250,0.000,0
1639814242.580,831.543,-23.926,-83.496,-33.691,0.000,0
1639814242.584,-533.691,-29.297,-52.246,-85.938,0.000,0
1639814242.588,-1000.000,-34.668,-30.762,-38.574,0.000,0
1639814242.592,-701.660,-29.785,-40.527,-1.465,0.000,0
1639814242.596,625.000,-18.066,-48.340,23.926,0.000,0
1639814242.600,951.172,-16.602,-54.688,-31.738,0.000,0
1639814242.603,-378.418,-37.109,-55.176,-63.477,0.000,0
1639814242.607,-1000.000,-39.062,-44.922,-31.738,0.000,0
1639814242.611,-770.020,-15.625,-19.531,-31.250,0.000,0
1639814242.615,458.008,-15.137,-21.484,0.977,0.000,0
1639814242.619,-880.859,-25.879,-49.316,-37.109,0.000,0
1639814242.623,-75.684,-32.227,-58.105,-79.590,0.000,0
1639814242.627,-1000.000,-37.598,-38.574,-41.504,0.000,0
1639814242.631,-898.926,-38.086,-31.738,0.488,0.000,0
1639814242.635,256.836,-27.832,-38.086,39.551,0.000,0
1639814242.638,-890.625,-25.391,-53.711,4.883,0.000,0
1639814242.642,-22.949,-40.527,-71.777,-70.801,0.000,0
1639814242.646,-1000.000,-44.922,-54.199,-45.410,0.000,0
1639814242.650,-973.145,-37.109,-42.969,5.859,0.000,0
1639814242.654,121.582,-12.207,-36.133,40.039,0.000,0
1639814242.658,-810.059,-4.395,-39.551,20.020,0.000,0
1639814242.662,207.031,-26.855,-46.875,-47.363,0.000,0
1639814242.665,-1000.000,-29.785,-34.668,-47.852,0.000,0
1639814242.670,-1000.000,-20.508,-23.926,-18.066,0.000,0
1639814242.674,-18.555,-16.602,-23.926,38.086,0.000,0
1639814242.677,-827.148,-24.414,-67.383,44.434,0.000,0
1639814242.681,346.680,-33.691,-77.148,-37.598,0.000,0
1639814242.685,-926.270,-35.645,-44.922,-47.852,0.000,0
1639814242.689,-1000.000,-37.109,-50.293,-31.250,0.000,0
1639814242.693,-190.918,-43.457,-54.199,-2.441,0.000,0
1639814242.697,-856.934,-43.945,-48.828,12.207,0.000,0
1639814242.700,392.578,-35.645,-28.320,-61.523,0.000,0
1639814242.704,-894.043,-44.434,-27.832,-73.242,0.000,0
1639814242.708,-1000.000,-47.852,-42.969,-30.762,0.000,0
1639814242.712,-353.516,-37.109,-23.438,1.465,0.000,0
1639814242.716,-932.129,-18.066,-29.785,11.719,0.000,0
1639814242.720,562.500,-31.738,-67.871,-54.199,0.000,0
1639814242.724,-772.461,-51.758,-51.758,-93.262,0.000,0
1639814242.728,-1000.000,-39.551,-20.508,-48.828,0.000,0
1639814242.732,-552.734,-30.762,-27.344,-7.324,0.000,0
1639814242.735,897.949,-36.621,-55.176,23.438,0.000,0
1639814242.739,627.441,-56.641,-87.402,-2.441,0.000,0
1639814242.743,-750.977,-49.316,-64.453,-45.410,0.000,0
1639814242.747,-1000.000,-23.926,-35.156,-56.152,0.000,0
1639814242.751,-687.988,-33.691,-56.641,-35.645,0.000,0
1639814242.755,655.273,-36.621,-61.035,-2.441,0.000,0
1639814242.759,925.781,-35.156,-61.035,-44.434,0.000,0
1639814242.763,-413.086,-51.758,-68.848,-78.125,0.000,0
1639814242.767,-1000.000,-52.246,-66.406,-25.879,0.000,0
1639814242.771,-718.262,-47.852,-59.570,-8.789,0.000,0
1639814242.775,550.781,-39.062,-53.223,8.301,0.000,0
1639814242.779,-916.992,-36.621,-71.777,-24.902,0.000,0
1639814242.782,-145.996,-59.570,-85.938,-69.336,0.000,0
1639814242.786,-1000.000,-61.523,-73.242,-14.648,0.000,0
1639814242.790,-870.605,-35.645,-48.828,4.883,0.000,0
1639814242.794,286.621,-20.020,-38.086,19.531,0.000,0
1639814242.798,-846.680,-31.738,-65.918,-6.348,0.000,0
1639814242.802,-17.578,-39.551,-67.383,-64.941,0.000,0
1639814242.805,-1000.000,-29.785,-44.434,-34.180,0.000,0
1639814242.810,-1000.000,-25.879,-46.387,5.371,0.000,0
1639814242.814,-42.969,-22.949,-47.852,26.855,0.000,0
1639814242.818,-820.801,-32.715,-62.500,-22.461,0.000,0
1639814242.822,56.641,-50.293,-76.172,-94.238,0.000,0
1639814242.825,-1000.000,-50.293,-66.406,-70.312,0.000,0
1639814242.829,-1000.000,-42.480,-58.105,-33.203,0.000,0
1639814242.833,-262.695,-32.227,-58.105,1.953,0.000,0
1639814242.837,-839.355,-28.320,-63.477,-15.137,0.000,0
1639814242.841,137.695,-35.645,-73.730,-73.730,0.000,0
1639814242.845,-1000.000,-44.922,-75.684,-40.527,0.000,0
1639814242.848,-1000.000,-32.715,-30.762,-9.277,0.000,0
1639814242.852,-318.848,-22.461,-20.508,14.648,0.000,0
1639814242.857,-858.887,-34.180,-72.754,-5.371,0.000,0
1639814242.861,246.094,-42.969,-88.379,-85.449,0.000,0
1639814242.864,-1000.000,-40.527,-53.711,-92.773,0.000,0
1639814242.868,-1000.000,-43.945,-39.551,-56.641,0.000,0
1639814242.872,-510.742,-42.969,-47.852,0.488,0.000,0
1639814242.876,-985.840,-36.133,-65.918,-3.906,0.000,0
1639814242.880,408.691,-38.086,-71.289,-67.383,0.000,0
1639814242.884,-946.289,-42.969,-51.758,-72.266,0.000,0
1639814242.888,-1000.000,-59.082,-63.477,-47.852,0.000,0
1639814242.891,-616.211,-55.664,-59.082,-15.137,0.000,0
1639814242.895,874.023,-27.832,-47.363,2.441,0.000,0
1639814242.899,589.844,-29.785,-65.918,-60.547,0.000,0
1639814242.904,-828.125,-37.598,-54.688,-74.707,0.000,0
1639814242.907,-1000.000,-31.738,-43.945,-19.531,0.000,0
1639814242.911,-785.156,-22.949,-44.922,-7.324,0.000,0
1639814242.915,618.164,-23.926,-44.434,20.020,0.000,0
1639814242.919,802.246,-39.551,-58.105,-33.203,0.000,0
1639814242.923,-661.621,-50.293,-62.988,-96.191,0.000,0
1639814242.927,-1000.000,-43.457,-63.965,-62.500,0.000,0
1639814242.930,-979.004,-35.645,-62.500,-29.785,0.000,0
1639814242.934,214.844,-38.086,-57.617,5.371,0.000,0
1639814242.938,983.887,-32.227,-56.641,-39.551,0.000,0
1639814242.942,-406.738,-32.715,-49.316,-89.844,0.000,0
1639814242.946,-1000.000,-43.945,-50.781,-37.109,0.000,0
1639814242.950,-1000.000,-41.504,-59.570,-20.508,0.000,0
1639814242.954,68.848,-24.902,-53.223,14.160,0.000,0
1639814242.958,-918.457,-25.879,-62.500,-0.488,0.000,0
1639814242.962,-226.562,-41.992,-67.871,-68.848,0.000,0
1639814242.966,-1000.000,-46.387,-47.852,-58.105,0.000,0
1639814242.970,-1000.000,-42.969,-46.387,-18.555,0.000,0
1639814242.973,-94.238,-27.832,-56.152,16.602,0.000,0
1639814242.977,-888.184,-30.762,-73.242,6.836,0.000,0
1639814242.981,-141.602,-39.551,-69.824,-44.922,0.000,0
1639814242.985,-1000.000,-23.438,-47.363,-45.410,0.000,0
1639814242.989,-1000.000,-20.996,-47.363,-24.902,0.000,0
1639814242.993,-255.371,-24.902,-44.922,20.020,0.000,0
1639814242.997,-836.426,-28.320,-48.828,13.184,0.000,0
1639814243.001,96.191,-27.832,-66.406,-56.152,0.000,0
1639814243.005,-1000.000,-27.344,-61.035,-72.754,0.000,0
1639814243.009,-1000.000,-27.344,-39.551,-34.668,0.000,0
1639814243.012,-318.848,-21.973,-44.434,4.883,0.000,0
1639814243.016,-857.910,-22.461,-67.871,0.000,0.000,0
1639814243.020,175.293,-32.227,-72.266,-74.707,0.000,0
1639814243.024,-1000.000,-46.875,-63.965,-70.312,0.000,0
1639814243.028,-1000.000,-36.621,-44.434,-15.625,0.000,0
1639814243.032,-415.039,-10.742,-31.738,-5.859,0.000,0
1639814243.035,-912.598,-13.184,-56.641,11.719,0.000,0
1639814243.039,391.602,-28.320,-68.848,-38.574,0.000,0
1639814243.044,-934.082,-31.738,-67.871,-63.965,0.000,0
1639814243.047,-1000.000,-28.809,-69.336,-33.691,0.000,0
1639814243.051,-550.781,-19.043,-59.570,8.789,0.000,0
1639814243.055,942.871,-13.184,-53.223,22.461,0.000,0
1639814243.059,578.613,-23.438,-58.594,-34.668,0.000,0
1639814243.063,-835.449,-38.574,-54.199,-60.059,0.000,0
1639814243.067,-1000.000,-41.992,-48.340,-45.410,0.000,0
1639814243.071,-557.617,-31.738,-51.758,-15.137,0.000,0
1639814243.074,834.961,-6.836,-43.945,13.672,0.000,0
1639814243.078,834.473,-28.320,-59.570,-23.926,0.000,0
1639814243.082,-522.461,-48.828,-58.594,-61.523,0.000,2
1639814243.086,-1000.000,-33.691,-41.504,-17.578,0.000,0
1639814243.090,-730.469,-27.832,-46.875,9.766,0.000,0
1639814243.094,567.871,-17.090,-60.059,23.926,0.000,0
1639814243.098,-974.609,-25.879,-65.918,-9.766,0.000,0
1639814243.102,-269.531,-34.180,-62.500,-57.129,0.000,0
1639814243.106,-1000.000,-31.250,-64.941,-27.344,0.000,0
1639814243.109,-884.766,-26.855,-61.035,-25.879,0.000,0
1639814243.113,277.344,-26.855,-70.312,-5.371,0.000,0
1639814243.117,-854.492,-31.738,-66.895,-14.160,0.000,0
1639814243.121,-20.996,-32.715,-45.898,-83.008,0.000,0
1639814243.125,-1000.000,-41.016,-39.551,-54.199,0.000,0
1639814243.129,-846.191,-38.086,-39.062,-22.949,0.000,0
1639814243.133,321.289,-15.625,-32.715,-8.301,0.000,0
1639814243.137,-825.684,-16.602,-49.316,-26.367,0.000,0
1639814243.141,83.496,-43.945,-63.965,-83.984,0.000,0
1639814243.144,-1000.000,-45.898,-60.547,-83.008,0.000,0
1639814243.148,-1000.000,-28.320,-39.062,-47.363,0.000,0
1639814243.152,-2.441,-15.625,-42.969,1.465,0.000,0
1639814243.156,-821.777,-31.250,-96.191,22.461,0.000,0
1639814243.160,95.703,-48.340,-90.820,-43.945,0.000,0
1639814243.164,-1000.000,-35.645,-43.945,-86.426,0.000,0
1639814243.168,-1000.000,-37.109,-30.762,-37.109,0.000,0
1639814243.171,-216.309,-37.109,-27.344,7.324,0.000,0
1639814243.175,-834.961,-29.297,-49.805,-12.695,0.000,0
1639814243.179,189.453,-38.086,-66.895,-80.566,0.000,0
1639814243.184,-1000.000,-51.758,-49.805,-79.102,0.000,0
1639814243.187,-1000.000,-41.504,-35.645,-32.715,0.000,0
1639814243.191,-378.418,-16.602,-32.715,-1.953,0.000,0
1639814243.195,-887.207,-15.625,-48.340,-13.184,0.000,0
1639814243.199,311.035,-35.645,-70.801,-68.359,0.000,0
1639814243.203,-984.863,-51.270,-67.383,-75.684,0.000,0
1639814243.207,-1000.000,-46.387,-40.527,-43.457,0.000,0
1639814243.211,-640.625,-29.785,-31.738,-10.254,0.000,0
1639814243.214,903.809,-29.297,-43.945,6.348,0.000,0
1639814243.218,314.453,-53.711,-71.777,-33.691,0.000,0
1639814243.222,-1000.000,-48.828,-51.270,-59.082,0.000,0
1639814243.226,-1000.000,-32.715,-33.203,-24.902,0.000,0
1639814243.230,-868.652,-33.691,-45.898,-3.418,0.000,0
1639814243.234,600.098,-26.855,-54.199,-6.348,0.000,0
1639814243.238,650.879,-28.809,-57.129,-57.617,0.000,0
1639814243.242,-842.285,-38.086,-36.133,-68.359,0.000,0
1639814243.246,-1000.000,-48.340,-29.785,-35.156,0.000,0
1639814243.250,-999.023,-46.875,-47.363,-5.371,0.000,0
1639814243.254,300.293,-26.367,-55.664,21.973,0.000,0
1639814243.257,843.750,-28.320,-62.012,-38.574,0.000,0
1639814243.261,-652.832,-50.293,-76.172,-59.082,0.000,0
1639814243.265,-1000.000,-45.898,-56.641,-20.508,0.000,0
1639814243.269,-1000.000,-30.273,-30.273,-15.137,0.000,0
1639814243.273,111.816,-37.598,-48.340,25.391,0.000,0
1639814243.277,947.754,-49.805,-63.965,-16.113,0.000,0
1639814243.281,-498.535,-53.711,-43.457,-82.031,0.000,0
1639814243.285,-1000.000,-41.016,-28.320,-39.062,0.000,0
1639814243.289,-1000.000,-32.227,-40.039,7.324,0.000,0
1639814243.293,-137.695,-31.250,-63.965,3.418,0.000,0
1639814243.296,-928.223,-35.156,-79.590,-24.902,0.000,0
1639814243.300,-190.430,-45.410,-71.289,-64.941,0.000,0
1639814243.304,-1000.000,-59.570,-68.848,-78.613,0.000,0
1639814243.308,-1000.000,-59.570,-53.711,-24.902,0.000,0
1639814243.312,-192.871,-29.297,-41.504,16.113,0.000,0
1639814243.316,-841.309,-22.949,-57.129,-24.414,0.000,0
1639814243.320,4.395,-41.016,-56.641,-74.219,0.000,0
1639814243.324,-1000.000,-40.039,-42.480,-58.594,0.000,0
1639814243.328,-1000.000,-33.203,-32.227,-31.738,0.000,0
1639814243.332,-282.715,-31.250,-29.785,-2.930,0.000,0
1639814243.336,-845.703,-34.668,-69.336,-18.555,0.000,0
1639814243.339,104.492,-46.875,-75.684,-72.754,0.000,0
1639814243.343,-1000.000,-54.688,-48.340,-61.035,0.000,0
1639814243.347,-1000.000,-44.434,-58.594,-23.438,0.000,0
1639814243.351,-487.305,-42.480,-73.242,17.578,0.000,0
1639814243.355,-948.242,-50.781,-66.406,14.160,0.000,0
1639814243.359,240.723,-42.969,-54.199,-62.988,0.000,0
1639814243.362,-1000.000,-41.016,-52.734,-65.430,0.000,0
1639814243.366,-1000.000,-41.992,-42.969,-11.230,0.000,0
1639814243.371,-600.098,-34.668,-42.480,20.508,0.000,0
1639814243.375,955.566,-30.273,-51.270,30.762,0.000,0
1639814243.378,347.656,-46.387,-58.105,-23.438,0.000,0
1639814243.382,-1000.000,-52.734,-50.781,-63.477,0.000,0
1639814243.386,-1000.000,-43.457,-56.641,-25.879,0.000,0
1639814243.390,-828.613,-36.133,-53.223,16.113,0.000,0
1639814243.394,666.016,-22.461,-57.129,30.762,0.000,0
1639814243.398,419.434,-46.387,-85.449,-15.137,0.000,0
1639814243.401,-1000.000,-44.922,-59.082,-30.273,0.000,0
1639814243.405,-1000.000,-15.625,-18.555,-7.324,0.000,0
1639814243.409,-978.027,-21.973,-41.016,3.418,0.000,0
1639814243.413,364.258,-12.207,-63.477,32.227,0.000,0
1639814243.417,821.777,-15.625,-61.523,-31.250,0.000,0
1639814243.421,-651.367,-34.180,-51.270,-80.078,0.000,0
1639814243.425,-1000.000,-37.109,-45.898,-28.809,0.000,0
1639814243.429,-906.250,-37.109,-36.621,5.859,0.000,0
1639814243.433,354.004,-37.598,-34.180,36.621,0.000,0
1639814243.437,975.098,-35.156,-64.453,-8.301,0.000,0
1639814243.440,-429.688,-52.246,-73.242,-62.500,0.000,0
1639814243.444,-1000.000,-57.617,-38.574,-32.227,0.000,0
1639814243.448,-994.141,-23.438,-9.277,-1.953,0.000,0
1639814243.452,85.938,-15.625,-47.363,50.293,0.000,0
1639814243.456,-937.500,-27.344,-86.914,11.230,0.000,0
1639814243.460,-243.652,-35.156,-75.684,-61.035,0.000,0
1639814243.464,-1000.000,-41.504,-35.645,-39.062,0.000,0
1639814243.468,-1000.000,-44.434,-30.762,1.465,0.000,0
1639814243.472,-176.758,-27.832,-50.781,24.414,0.000,0
1639814243.476,-842.285,-25.879,-41.992,-21.484,0.000,0
1639814243.479,-11.719,-50.781,-44.922,-90.820,0.000,0
1639814243.483,-1000.000,-55.176,-59.082,-78.125,0.000,0
1639814243.487,-1000.000,-51.758,-49.316,-35.645,0.000,0
1639814243.491,-293.457,-32.227,-45.898,-4.883,0.000,0
1639814243.495,-847.168,-10.742,-69.824,-10.742,0.000,0
1639814243.499,108.398,-32.227,-77.148,-62.500,0.000,0
1639814243.503,-1000.000,-49.316,-54.199,-62.012,0.000,0
1639814243.506,-1000.000,-48.340,-32.227,-45.898,0.000,0
1639814243.511,-411.621,-36.621,-30.273,-17.090,0.000,0
1639814243.514,-915.039,-29.297,-55.176,-11.230,0.000,0
1639814243.518,97.656,-31.250,-55.176,-74.219,0.000,0
1639814243.522,-1000.000,-27.344,-22.949,-78.125,0.000,0
1639814243.526,-1000.000,-25.391,-28.809,-41.016,0.000,0
1639814243.530,-680.176,-26.855,-55.664,31.738,0.000,0
1639814243.534,838.867,-14.648,-42.480,50.293,0.000,0
1639814243.538,363.281,-15.137,-39.062,-37.598,0.000,0
1639814243.541,-1000.000,-36.621,-49.316,-66.895,0.000,0
1639814243.545,-1000.000,-40.039,-36.133,-39.062,0.000,0
1639814243.549,-652.832,-28.809,-25.391,0.977,0.000,0
1639814243.553,875.000,-17.090,-33.691,12.207,0.000,0
1639814243.557,481.934,-29.785,-51.758,-53.223,0.000,0
1639814243.561,-947.754,-42.480,-46.875,-73.730,0.000,0
1639814243.565,-1000.000,-36.621,-30.273,-39.551,0.000,0
1639814243.569,-944.824,-25.391,-28.320,-14.160,0.000,0
1639814243.573,484.375,-18.066,-40.039,12.695,0.000,0
1639814243.577,583.496,-27.344,-57.617,-13.672,0.000,0
1639814243.581,-925.781,-35.156,-50.781,-38.574,0.000,0
1639814243.584,-1000.000,-31.250,-35.645,-34.668,0.000,0
1639814243.588,-1000.000,-36.133,-41.992,-22.461,0.000,0
1639814243.592,119.629,-35.156,-51.758,22.461,0.000,0
1639814243.596,952.148,-20.996,-51.270,-22.949,0.000,0
1639814243.600,-443.359,-26.855,-39.551,-82.520,0.000,0
1639814243.604,-1000.000,-32.715,-46.875,-48.340,0.000,0
1639814243.608,-908.691,-27.832,-47.852,3.906,0.000,0
1639814243.612,246.094,-11.719,-35.156,27.344,0.000,0
1639814243.616,-863.770,-13.184,-46.387,-21.484,0.000,0
1639814243.620,-89.355,-35.156,-46.875,-53.223,0.000,0
1639814243.624,-1000.000,-38.086,-36.621,-19.531,0.000,0
1639814243.627,-986.328,-23.926,-23.438,3.906,0.000,0
1639814243.631,81.055,-18.555,-17.578,35.156,0.000,0
1639814243.635,-833.008,-42.969,-42.480,18.555,0.000,0
1639814243.639,64.941,-52.246,-30.273,-24.902,0.000,0
1639814243.643,-1000.000,-22.461,-13.184,-16.113,0.000,0
1639814243.647,-928.223,-15.137,-51.758,11.230,0.000,0
1639814243.651,160.156,-15.625,-61.523,47.363,0.000,0
1639814243.655,-823.730,-17.578,-51.270,21.484,0.000,0
1639814243.659,306.152,-31.738,-48.340,-45.898,0.000,0
1639814243.663,-967.773,-36.621,-33.203,-24.414,0.000,0
1639814243.667,-1000.000,-32.715,-25.391,-6.348,0.000,0
1639814243.670,-45.410,-24.414,-22.461,41.992,0.000,0
1639814243.674,-826.172,-21.484,-34.668,65.430,0.000,0
1639814243.678,311.523,-27.344,-44.922,-43.945,0.000,0
1639814243.682,-962.891,-41.016,-38.574,-71.777,0.000,0
1639814243.686,-1000.000,-36.133,-27.832,-18.066,0.000,0
1639814243.690,-140.137,-12.695,-20.020,20.020,0.000,0
1639814243.693,-878.418,-8.789,-49.316,6.836,0.000,0
1639814243.698,567.871,-18.066,-64.941,-65.918,0.000,0
1639814243.702,-718.262,-16.113,-40.039,-69.336,0.000,0
1639814243.706,-1000.000,-18.555,-38.086,-21.973,0.000,0
1639814243.709,-320.801,-19.531,-48.340,18.555,0.000,0
1639814243.713,-988.281,-16.113,-54.199,26.367,0.000,0
1639814243.717,788.086,-30.273,-56.641,-29.297,0.000,0
1639814243.721,-485.840,-30.762,-43.457,-71.777,0.000,0
1639814243.725,-1000.000,-30.762,-46.875,-35.156,0.000,0
1639814243.729,-240.234,-25.391,-43.945,14.160,0.000,0
1639814243.733,991.211,6.836,-41.992,32.227,0.000,0
1639814243.736,986.328,-4.395,-57.129,-23.926,0.000,0
1639814243.740,-105.957,-23.926,-53.711,-54.688,0.000,0
1639814243.745,-1000.000,-19.043,-43.945,-10.742,0.000,0
1639814243.748,-355.957,-20.020,-28.320,9.277,0.000,0
1639814243.752,911.133,-12.695,-31.738,29.785,0.000,0
1639814243.756,-930.176,-14.648,-55.664,-12.695,0.000,0
1639814243.760,10.742,-21.484,-48.340,-39.551,0.000,0
1639814243.764,-1000.000,-14.648,-33.203,-26.367,0.000,0
1639814243.768,-833.984,-10.254,-35.156,-17.090,0.000,0
1639814243.772,392.578,-12.207,-37.109,40.039,0.000,0
1639814243.775,-881.348,-13.184,-38.574,-8.301,0.000,0
1639814243.779,-69.824,-20.996,-42.480,-86.914,0.000,0
1639814243.783,-1000.000,-40.527,-48.340,-45.410,0.000,0
1639814243.787,-860.352,-29.785,-46.875,-15.625,0.000,0
1639814243.791,306.152,-7.324,-38.574,-0.488,0.000,0
1639814243.795,-841.309,-19.043,-52.734,-0.977,0.000,0
1639814243.799,-14.160,-37.598,-68.359,-47.852,0.000,0
1639814243.803,-1000.000,-33.691,-54.688,-43.457,0.000,0
1639814243.807,-1000.000,-20.020,-32.715,-23.926,0.000,0
1639814243.811,-141.602,-15.625,-28.320,9.766,0.000,0
1639814243.814,-826.172,-28.320,-74.707,3.418,0.000,0
1639814243.818,62.012,-36.621,-85.449,-81.055,0.000,0
1639814243.822,-1000.000,-20.996,-34.180,-68.848,0.000,0
1639814243.826,-1000.000,-19.531,-33.203,-23.438,0.000,0
1639814243.830,-309.570,-15.625,-36.133,6.836,0.000,0
1639814243.834,-855.957,-18.066,-42.480,3.418,0.000,0
1639814243.838,138.672,-37.109,-44.922,-60.547,0.000,0
1639814243.842,-1000.000,-43.945,-34.180,-64.453,0.000,0
1639814243.846,-1000.000,-35.156,-31.738,-41.992,0.000,0
1639814243.850,-373.535,-20.996,-33.203,3.906,0.000,0
1639814243.853,-879.883,-17.090,-48.828,21.484,0.000,0
1639814243.857,229.980,-30.762,-60.059,-49.316,0.000,0
1639814243.861,-1000.000,-54.199,-58.594,-41.992,0.000,0
1639814243.865,-1000.000,-44.434,-41.016,-28.320,0.000,0
1639814243.869,-603.516,-18.066,-16.602,-20.020,0.000,0
1639814243.873,944.824,-20.020,-41.504,21.973,0.000,1
1639814243.877,412.598,-35.156,-66.895,-20.508,0.000,0
1639814243.880,-973.145,-34.668,-41.992,-42.480,0.000,0
1639814243.885,-1000.000,-28.320,-22.949,-11.230,0.000,0
1639814243.889,-805.176,-32.715,-32.715,8.301,0.000,0
1639814243.893,676.270,-26.855,-43.945,13.184,0.000,0
1639814243.896,594.238,-26.367,-40.527,-36.133,0.000,0
1639814243.900,-865.723,-37.598,-41.016,-56.641,0.000,0
1639814243.904,-1000.000,-36.621,-49.316,-10.742,0.000,0
1639814243.908,-773.438,-25.391,-39.062,11.230,0.000,0
1639814243.912,582.031,-12.695,-24.902,28.809,0.000,0
1639814243.916,928.223,-23.438,-41.016,-11.719,0.000,0
1639814243.920,-453.613,-44.922,-78.613,-43.457,0.000,0
1639814243.923,-1000.000,-43.457,-69.824,-2.930,0.000,0
1639814243.927,-770.508,-30.273,-36.133,-2.930,0.000,0
1639814243.932,472.168,-27.344,-52.246,15.625,0.000,0
1639814243.936,-901.855,-31.738,-83.496,-20.996,0.000,0
1639814243.940,-118.164,-47.363,-72.266,-71.777,0.000,0
1639814243.943,-1000.000,-43.457,-36.621,-40.039,0.000,0
1639814243.947,-755.859,-33.691,-33.203,-38.086,0.000,0
1639814243.951,440.430,-23.438,-50.781,28.809,0.000,0
1639814243.955,-844.238,-24.902,-62.500,20.996,0.000,0
1639814243.959,55.664,-39.551,-54.688,-81.055,0.000,0
1639814243.963,-1000.000,-33.203,-44.434,-63.965,0.000,0
1639814243.966,-951.172,-35.645,-55.176,-31.738,0.000,0
1639814243.970,168.945,-24.902,-47.852,-10.742,0.000,0
1639814243.974,-810.059,-24.414,-52.246,-28.809,0.000,0
1639814243.979,200.684,-40.527,-72.266,-84.961,0.000,0
1639814243.983,-1000.000,-34.668,-52.246,-66.406,0.000,0
1639814243.986,-1000.000,-29.297,-40.039,-28.809,0.000,0
1639814243.990,24.414,-20.996,-46.387,24.414,0.000,0
1639814243.994,-816.406,-29.785,-60.059,13.672,0.000,0
1639814243.998,185.547,-45.898,-67.871,-63.477,0.000,0
1639814244.002,-1000.000,-30.762,-49.316,-66.406,0.000,0
1639814244.006,-1000.000,-18.555,-42.480,-36.133,0.000,0
1639814244.009,-200.684,-25.879,-55.176,9.766,0.000,0
1639814244.013,-841.797,-29.297,-74.219,1.465,0.000,0
1639814244.017,321.777,-26.855,-68.359,-91.309,0.000,0
1639814244.021,-944.336,-37.109,-52.734,-99.609,0.000,0
1639814244.025,-1000.000,-39.062,-49.805,-45.410,0.000,0
1639814244.029,-436.035,-32.715,-39.062,6.836,0.000,0
1639814244.033,-933.105,-29.297,-43.945,41.504,0.000,0
1639814244.037,363.281,-41.992,-71.289,-40.039,0.000,0
1639814244.041,-968.750,-44.922,-68.848,-77.148,0.000,0
1639814244.045,-1000.000,-36.133,-54.688,-18.066,0.000,0
1639814244.049,-680.664,-34.180,-47.363,7.324,0.000,0
1639814244.052,852.051,-29.785,-47.852,5.859,0.000,0
1639814244.056,394.043,-40.039,-63.477,-27.344,0.000,0
1639814244.060,-1000.000,-33.691,-38.086,-82.520,0.000,0
1639814244.064,-1000.000,-13.184,-20.508,-78.125,0.000,0
1639814244.068,-884.766,-14.648,-41.016,-14.160,0.000,0
1639814244.072,528.320,-17.090,-56.641,27.832,0.000,0
1639814244.076,731.445,-24.414,-63.477,-24.902,0.000,0
1639814244.080,-769.531,-45.898,-49.316,-76.172,0.000,0
1639814244.084,-1000.000,-52.734,-38.574,-31.738,0.000,0
1639814244.088,-1000.000,-36.133,-34.668,7.812,0.000,0
1639814244.092,134.277,-24.414,-41.016,22.461,0.000,0
1639814244.095,861.328,-36.621,-55.176,-17.090,0.000,0
1639814244.099,-623.047,-50.293,-63.477,-55.664,0.000,0
1639814244.103,-1000.000,-31.250,-40.527,-11.230,0.000,0
1639814244.107,-1000.000,-3.906,-25.879,-0.488,0.000,0
1639814244.111,-9.766,-13.672,-63.965,7.324,0.000,0
1639814244.115,-987.793,-32.715,-81.543,-22.461,0.000,0
1639814244.119,-358.887,-31.250,-69.824,-72.754,0.000,0
1639814244.123,-1000.000,-28.320,-43.457,-63.477,0.000,0
1639814244.127,-1000.000,-33.203,-31.250,-20.020,0.000,0
1639814244.131,-159.668,-21.973,-32.715,24.902,0.000,0
1639814244.134,-873.535,-27.344,-53.711,-20.020,0.000,0
1639814244.138,-85.938,-43.945,-67.383,-72.266,0.000,0
1639814244.142,-1000.000,-37.598,-50.293,-47.363,0.000,0
1639814244.146,-1000.000,-37.109,-58.594,-3.906,0.000,0
1639814244.150,-190.430,-18.066,-52.246,29.297,0.000,0
1639814244.154,-824.707,-6.836,-48.340,-11.230,0.000,0
1639814244.158,96.191,-27.832,-54.199,-66.895,0.000,0
1639814244.161,-1000.000,-31.250,-48.340,-43.945,0.000,0
1639814244.166,-1000.000,-19.043,-46.875,-15.625,0.000,0
1639814244.170,-242.188,-11.719,-25.879,13.184,0.000,0
1639814244.173,-834.961,-17.090,-50.293,0.488,0.000,0
1639814244.177,217.285,-32.227,-69.824,-66.406,0.000,0
1639814244.181,-1000.000,-31.250,-45.898,-66.406,0.000,0
1639814244.185,-1000.000,-21.484,-47.363,-35.645,0.000,0
1639814244.189,-433.105,-27.344,-68.848,0.977,0.000,0
1639814244.193,-932.129,-28.320,-76.660,17.090,0.000,0
1639814244.197,395.020,-24.414,-55.664,-52.246,0.000,0
1639814244.200,-934.082,-28.809,-51.758,-90.332,0.000,0
1639814244.204,-1000.000,-23.438,-47.852,-60.547,0.000,0
1639814244.208,-514.648,-15.625,-37.598,-23.926,0.000,0
1639814244.212,980.469,-17.578,-49.805,-13.184,0.000,0
1639814244.216,507.324,-37.598,-72.266,-63.477,0.000,0
1639814244.220,-870.605,-41.504,-56.152,-73.242,0.000,0
1639814244.224,-1000.000,-32.715,-34.180,-37.109,0.000,0
1639814244.228,-667.969,-28.809,-28.809,-19.531,0.000,0
1639814244.232,793.945,-26.855,-47.363,-0.977,0.000,0
1639814244.236,612.793,-42.480,-81.543,-44.434,0.000,0
1639814244.239,-818.848,-40.527,-56.152,-70.312,0.000,0
1639814244.243,-1000.000,-19.531,-32.227,-46.875,0.000,0
1639814244.247,-875.488,-21.484,-50.293,-24.414,0.000,0
1639814244.251,424.805,-24.902,-52.734,32.715,0.000,0
1639814244.255,944.336,-26.367,-58.105,-2.930,0.000,0
1639814244.259,-458.008,-25.879,-53.223,-59.082,0.000,0
1639814244.263,-1000.000,-40.527,-44.922,-15.625,0.000,0
1639814244.267,-940.918,-45.410,-36.133,-7.324,0.000,0
1639814244.271,257.324,-26.855,-36.621,13.184,0.000,0
1639814244.274,-955.566,-45.410,-62.012,-13.672,0.000,0
1639814244.278,-300.781,-64.941,-70.801,-70.312,0.000,0
1639814244.282,-1000.000,-45.898,-50.781,-44.922,0.000,0
1639814244.286,-1000.000,-30.762,-34.180,-29.785,0.000,0
1639814244.290,24.902,-27.832,-42.969,-12.695,0.000,0
1639814244.294,-869.629,-36.133,-75.684,-5.371,0.000,0
1639814244.298,-70.801,-33.203,-74.707,-62.500,0.000,0
1639814244.301,-1000.000,-29.297,-43.457,-77.148,0.000,0
1639814244.306,-1000.000,-36.133,-37.598,-38.086,0.000,0
1639814244.310,-97.656,-26.367,-41.016,5.371,0.000,0
1639814244.314,-819.824,-24.902,-55.664,-9.277,0.000,0
1639814244.317,106.445,-33.203,-55.664,-66.895,0.000,0
1639814244.321,-1000.000,-32.227,-58.105,-49.316,0.000,0
1639814244.325,-1000.000,-34.180,-50.781,-14.160,0.000,0
1639814244.329,-189.453,-26.367,-46.875,4.395,0.000,0
1639814244.333,-826.172,-23.438,-62.500,-20.020,0.000,0
1639814244.337,218.750,-42.969,-65.430,-102.051,0.000,0
1639814244.341,-1000.000,-44.434,-42.480,-75.684,0.000,0
1639814244.344,-1000.000,-22.461,-16.113,-40.039,0.000,0
1639814244.348,-291.504,-14.160,-33.691,-60.547,0.000,0
1639814244.353,-872.070,-23.438,-69.824,-48.340,0.000,0
1639814244.357,392.578,-36.621,-73.730,-100.098,0.000,0
1639814244.361,-907.715,-32.227,-44.434,-141.113,0.000,0
1639814244.364,-1000.000,-33.691,-43.945,-130.371,0.000,0
1639814244.368,-377.930,-40.039,-71.777,-118.652,0.000,0
1639814244.372,-963.867,-42.480,-81.055,-97.168,0.000,0
1639814244.376,632.324,-50.781,-81.543,-159.668,0.000,0
1639814244.380,-691.406,-51.270,-56.641,-201.172,0.000,0
1639814244.384,-1000.000,-58.105,-60.059,-159.668,0.000,0
1639814244.388,-512.207,-52.246,-75.195,-141.113,0.000,0
1639814244.391,897.461,-32.715,-62.012,-137.695,0.000,0
1639814244.395,790.527,-40.039,-92.285,-185.547,0.000,0
1639814244.400,-558.594,-46.875,-83.008,-213.379,0.000,0
1639814244.404,-1000.000,-45.410,-38.574,-151.367,0.000,0
1639814244.407,-687.988,-26.855,-39.062,-80.566,0.000,0
1639814244.411,700.195,-14.160,-77.637,-41.992,0.000,0
1639814244.415,844.727,-37.109,-93.750,-83.496,0.000,0
1639814244.419,-569.824,-59.082,-75.684,-129.883,0.000,0
1639814244.423,-1000.000,-60.059,-52.734,-104.980,0.000,0
1639814244.427,-879.883,-39.551,-44.434,-56.152,0.000,0
1639814244.431,328.125,-33.691,-64.941,-11.230,0.000,0
1639814244.434,-931.152,-36.621,-77.148,-39.062,0.000,0
1639814244.438,-224.121,-28.809,-48.828,-91.309,0.000,0
1639814244.442,-1000.000,-27.832,-43.945,-60.547,0.000,0
1639814244.446,-984.375,-33.203,-61.035,-9.766,0.000,0
1639814244.450,98.633,-28.809,-54.199,29.297,0.000,0
1639814244.454,-846.191,-32.715,-68.359,-3.906,0.000,0
1639814244.458,-41.016,-54.199,-64.453,-66.406,0.000,0
1639814244.462,-1000.000,-48.828,-45.410,-29.785,0.000,0
1639814244.466,-1000.000,-39.551,-37.598,26.855,0.000,0
1639814244.470,-55.664,-31.738,-42.480,45.898,0.000,0
1639814244.473,-869.629,-36.133,-70.801,23.438,0.000,0
1639814244.477,-85.449,-51.270,-69.336,-15.625,0.000,0
1639814244.481,-1000.000,-30.762,-62.500,-13.672,0.000,0
1639814244.485,-1000.000,-31.738,-60.547,0.977,0.000,0
1639814244.489,-226.562,-36.621,-32.227,38.574,0.000,0
1639814244.493,-826.660,-20.996,-34.180,33.691,0.000,0
1639814244.497,186.523,-32.715,-37.598,-37.598,0.000,0
1639814244.501,-1000.000,-39.062,-37.598,-34.668,0.000,0
1639814244.505,-1000.000,-30.762,-36.621,16.602,0.000,0
1639814244.509,-267.578,-25.879,-22.949,54.688,0.000,0
1639814244.513,-850.586,-21.973,-49.316,47.852,0.000,0
1639814244.516,261.719,-31.250,-62.988,-16.602,0.000,0
1639814244.520,-995.605,-48.340,-49.805,3.418,0.000,0
1639814244.524,-1000.000,-32.227,-28.809,57.129,0.000,0
1639814244.528,-326.172,-11.719,-14.648,82.520,0.000,0
1639814244.532,-906.738,-17.090,-45.410,81.543,0.000,0
1639814244.536,504.883,-26.855,-63.965,9.766,0.000,0
1639814244.540,-815.918,-27.832,-38.086,-23.926,0.000,0
1639814244.544,-1000.000,-30.762,-20.508,13.672,0.000,0
1639814244.548,-573.730,-33.691,-32.715,61.523,0.000,0
1639814244.552,881.348,-25.879,-53.711,79.102,0.000,0
1639814244.555,656.250,-31.738,-55.664,26.367,0.000,0
1639814244.559,-741.699,-40.039,-47.852,2.441,0.000,0
1639814244.563,-1000.000,-36.133,-44.922,60.547,0.000,0
1639814244.567,-707.520,-32.227,-34.668,87.402,0.000,0
1639814244.571,686.035,-16.602,-20.996,77.148,0.000,0
1639814244.575,855.469,-22.461,-36.621,52.246,0.000,0
1639814244.579,-546.875,-27.344,-38.086,-1.465,0.000,0
1639814244.582,-1000.000,-24.902,-25.391,26.855,0.000,0
1639814244.587,-809.082,-23.926,-20.020,66.895,0.000,0
1639814244.591,469.727,-10.254,-49.805,75.195,0.000,0
1639814244.595,-986.816,-19.531,-89.844,51.758,0.000,0
1639814244.599,-324.219,-31.738,-76.660,14.648,0.000,0
1639814244.602,-1000.000,-30.762,-38.574,20.996,0.000,0
1639814244.606,-956.543,-30.273,-23.926,44.434,0.000,0
1639814244.610,148.438,-30.762,-44.922,100.586,0.000,0
1639814244.614,-864.258,-22.461,-52.734,68.848,0.000,0
1639814244.618,-71.777,-16.602,-33.203,-18.555,0.000,0
1639814244.622,-1000.000,-31.250,-37.109,10.254,0.000,0
1639814244.626,-1000.000,-30.273,-44.922,62.012,0.000,0
1639814244.629,14.160,-3.418,-28.320,97.656,0.000,0
1639814244.634,-821.289,-8.301,-35.156,64.941,0.000,0
1639814244.637,69.336,-28.809,-40.039,20.996,0.000,0
1639814244.641,-1000.000,-26.855,-29.297,48.340,0.000,0
1639814244.645,-1000.000,-20.996,-26.855,61.035,0.000,0
1639814244.649,-53.711,-17.578,-18.555,66.895,0.000,0
1639814244.653,-817.871,-28.809,-48.828,59.082,0.000,0
1639814244.657,154.785,-39.062,-66.406,-6.348,0.000,0
1639814244.661,-1000.000,-31.250,-48.828,-1.953,0.000,0
1639814244.664,-1000.000,-28.320,-35.645,31.250,0.000,0
1639814244.668,-174.805,-40.039,-39.551,65.918,0.000,0
1639814244.672,-837.891,-40.039,-57.129,82.031,0.000,0
1639814244.676,326.172,-37.109,-30.273,14.160,0.000,0
1639814244.681,-954.102,-41.992,-20.508,-0.977,0.000,0
1639814244.684,-1000.000,-37.109,-34.668,44.922,0.000,0
1639814244.688,-223.145,-22.461,-32.715,73.242,0.000,0
1639814244.692,-866.699,-19.043,-35.645,73.730,0.000,0
1639814244.696,440.430,-36.133,-53.711,20.508,0.000,0
1639814244.700,-857.910,-40.039,-46.875,20.020,0.000,0
1639814244.704,-1000.000,-30.762,-39.062,69.824,0.000,0
1639814244.708,-406.250,-9.277,-29.297,69.824,0.000,0
1639814244.711,-988.770,-5.371,-26.855,63.965,0.000,0
1639814244.715,646.973,-27.344,-49.805,24.902,0.000,0
1639814244.719,-672.852,-24.902,-34.180,0.000,0.000,0
1639814244.723,-1000.000,-25.879,-10.742,28.320,0.000,0
1639814244.727,-596.191,-30.762,-4.395,67.871,0.000,0
1639814244.731,782.715,-20.508,-21.484,68.848,0.000,0
1639814244.735,864.258,-19.531,-37.598,3.418,0.000,0
1639814244.739,-478.516,-35.156,-37.109,-33.691,0.000,1
1639814244.743,-1000.000,-40.039,-49.316,13.672,0.000,0
1639814244.747,-763.184,-29.785,-41.992,47.852,0.000,0
1639814244.751,562.988,-17.578,-31.250,52.734,0.000,0
1639814244.754,959.961,-17.090,-33.691,5.859,0.000,0
1639814244.758,-405.273,-41.504,-46.875,-20.508,0.000,0
1639814244.762,-1000.000,-44.434,-40.527,29.297,0.000,0
1639814244.766,-878.906,-19.043,-20.996,31.250,0.000,0
1639814244.770,311.035,-12.207,-34.668,34.180,0.000,0
1639814244.774,-888.184,-28.320,-49.805,14.648,0.000,0
1639814244.778,-145.508,-39.062,-51.758,-35.645,0.000,0
1639814244.782,-1000.000,-36.133,-36.621,-0.977,0.000,0
1639814244.786,-1000.000,-30.762,-26.367,39.062,0.000,0
1639814244.790,1.465,-22.461,-22.461,47.852,0.000,0
1639814244.794,-851.562,-29.297,-49.316,14.648,0.000,0
1639814244.797,-31.738,-41.016,-53.711,-33.203,0.000,0
1639814244.801,-1000.000,-37.598,-33.691,-22.461,0.000,0
1639814244.805,-1000.000,-39.062,-43.945,30.762,0.000,0
1639814244.809,-20.020,-21.973,-41.504,68.848,0.000,0
1639814244.813,-811.523,-12.695,-40.039,30.273,0.000,0
1639814244.817,149.414,-35.645,-53.223,-25.879,0.000,0
1639814244.821,-1000.000,-37.598,-52.246,-23.438,0.000,0
1639814244.825,-1000.000,-26.855,-36.621,0.000,0.000,0
1639814244.829,-162.109,-27.832,-23.926,29.785,0.000,0
1639814244.833,-825.195,-26.367,-66.406,42.480,0.000,0
1639814244.836,270.996,-33.691,-76.172,4.883,0.000,0
1639814244.840,-984.375,-47.852,-38.574,-24.414,0.000,0
1639814244.844,-1000.000,-39.551,-40.039,-22.461,0.000,0
1639814244.848,-256.836,-26.855,-48.828,22.461,0.000,0
1639814244.852,-871.094,-30.762,-57.129,50.293,0.000,0
1639814244.856,416.504,-29.297,-41.504,-17.090,0.000,0
1639814244.860,-886.719,-34.668,-34.180,-41.992,0.000,0
1639814244.864,-1000.000,-30.273,-39.062,-19.531,0.000,0
1639814244.868,-348.145,-26.367,-31.738,-2.441,0.000,0
1639814244.872,-936.035,-29.785,-34.668,19.531,0.000,0
1639814244.876,584.961,-32.715,-52.246,-39.062,0.000,0
1639814244.879,-763.184,-32.715,-46.387,-87.402,0.000,0
1639814244.883,-1000.000,-25.879,-29.785,-50.781,0.000,0
1639814244.887,-572.266,-26.855,-42.480,-20.508,0.000,0
1639814244.891,835.449,-15.625,-45.898,-6.348,0.000,0
1639814244.895,632.812,-32.715,-70.312,-47.852,0.000,0
1639814244.899,-766.602,-37.109,-61.035,-72.266,0.000,0
1639814244.903,-1000.000,-21.484,-26.855,-44.922,0.000,0
1639814244.906,-744.141,-30.273,-39.551,-28.320,0.000,0
1639814244.910,593.262,-27.832,-44.434,-0.977,0.000,0
1639814244.915,918.457,-30.762,-47.363,-35.156,0.000,0
1639814244.918,-462.402,-44.434,-55.664,-82.520,0.000,0
1639814244.922,-1000.000,-47.363,-53.223,-47.852,0.000,0
1639814244.926,-908.691,-39.551,-24.902,-27.832,0.000,0
1639814244.930,308.594,-32.227,-32.227,-1.465,0.000,0
1639814244.934,-978.516,-43.945,-78.613,-38.086,0.000,0
1639814244.938,-311.035,-57.617,-73.730,-90.820,0.000,0
1639814244.942,-1000.000,-50.293,-46.875,-47.852,0.000,0
1639814244.945,-972.168,-28.809,-25.391,-36.133,0.000,0
1639814244.949,110.352,-22.461,-29.297,-20.020,0.000,0
1639814244.953,-849.609,-31.738,-59.570,-16.602,0.000,0
1639814244.957,-55.664,-47.363,-68.848,-87.402,0.000,0
1639814244.961,-1000.000,-43.945,-45.898,-92.285,0.000,0
1639814244.965,-1000.000,-36.133,-34.668,-41.504,0.000,0
1639814244.969,-108.887,-38.086,-42.480,-25.879,0.000,0
1639814244.973,-822.266,-41.992,-54.688,-72.754,0.000,0
1639814244.977,77.148,-50.293,-51.758,-110.352,0.000,0
1639814244.981,-1000.000,-45.898,-40.039,-85.449,0.000,0
1639814244.984,-1000.000,-40.039,-53.223,-41.992,0.000,0
1639814244.988,-220.215,-26.855,-67.871,-6.836,0.000,0
1639814244.992,-829.590,-18.555,-62.500,-48.828,0.000,0
1639814244.996,166.504,-31.738,-59.570,-102.051,0.000,0
1639814245.000,-1000.000,-39.062,-44.434,-87.402,0.000,0
1639814245.004,-1000.000,-29.785,-20.996,-57.129,0.000,0
1639814245.008,-300.781,-21.484,-30.273,-21.484,0.000,0
1639814245.012,-856.445,-28.320,-59.082,-14.648,0.000,0
1639814245.016,265.625,-49.316,-58.105,-74.707,0.000,0
1639814245.020,-994.141,-42.969,-38.086,-99.609,0.000,0
1639814245.023,-1000.000,-25.879,-35.645,-59.570,0.000,0
1639814245.027,-581.543,-30.762,-50.781,-7.812,0.000,0
1639814245.031,948.730,-24.902,-52.246,-2.930,0.000,0
1639814245.035,403.320,-22.461,-50.293,-66.406,0.000,0
1639814245.039,-965.332,-38.574,-44.434,-97.656,0.000,0
1639814245.043,-1000.000,-47.363,-36.133,-74.219,0.000,0
1639814245.047,-602.539,-34.668,-39.551,-43.945,0.000,0
1639814245.050,880.859,-16.602,-40.527,-11.230,0.000,0
1639814245.055,607.910,-29.297,-48.828,-62.012,0.000,0
1639814245.059,-807.617,-34.668,-49.805,-84.473,0.000,0
1639814245.063,-1000.000,-23.926,-59.570,-42.480,0.000,0
1639814245.066,-779.297,-20.508,-38.086,-41.504,0.000,0
1639814245.070,544.434,-33.203,-36.621,-22.949,0.000,0
1639814245.074,762.695,-48.828,-78.613,-52.734,0.000,0
1639814245.078,-601.074,-47.852,-74.219,-93.262,0.000,0
1639814245.082,-1000.000,-41.504,-60.059,-53.711,0.000,0
1639814245.086,-989.746,-35.645,-47.363,-36.133,0.000,0
1639814245.090,192.383,-36.621,-49.805,-41.992,0.000,0
1639814245.093,920.410,-40.039,-65.918,-66.406,0.000,0
1639814245.097,-472.656,-46.387,-60.547,-107.422,0.000,0
1639814245.102,-1000.000,-45.410,-50.293,-79.590,0.000,0
1639814245.106,-1000.000,-39.551,-51.758,-58.594,0.000,0
1639814245.109,77.637,-25.391,-44.434,-13.672,0.000,0
1639814245.113,-884.277,-31.250,-54.199,-37.109,0.000,0
1639814245.117,-149.902,-42.480,-70.801,-103.516,0.000,0
1639814245.121,-1000.000,-42.480,-62.012,-82.031,0.000,0
1639814245.125,-1000.000,-34.668,-42.480,-53.711,0.000,0
1639814245.129,-95.215,-19.043,-34.180,-4.883,0.000,0
1639814245.133,-831.543,-36.133,-61.035,-31.250,0.000,0
1639814245.136,35.645,-46.875,-57.617,-100.098,0.000,0
1639814245.140,-1000.000,-33.203,-31.738,-91.797,0.000,0
1639814245.144,-1000.000,-33.691,-34.668,-55.176,0.000,0
1639814245.149,-165.039,-41.992,-43.945,-8.301,0.000,0
1639814245.152,-826.660,-32.227,-54.199,-23.438,0.000,0
1639814245.156,107.422,-26.367,-46.387,-86.426,0.000,0
1639814245.160,-1000.000,-35.645,-26.855,-76.172,0.000,0
1639814245.164,-1000.000,-38.574,-27.344,-32.227,0.000,0
1639814245.168,-351.074,-27.344,-44.434,-1.465,0.000,0
1639814245.172,-869.629,-20.996,-61.035,-5.859,0.000,0
1639814245.176,217.773,-27.344,-55.176,-46.875,0.000,0
1639814245.179,-1000.000,-41.016,-69.824,-41.016,0.000,0
1639814245.183,-1000.000,-38.574,-70.312,-42.969,0.000,0
1639814245.187,-461.426,-22.461,-30.273,-44.434,0.000,0
1639814245.191,-939.941,-29.297,-47.363,-32.715,0.000,0
1639814245.195,351.562,-40.039,-68.359,-107.910,0.000,0
1639814245.199,-978.027,-40.527,-46.875,-124.512,0.000,0
1639814245.203,-1000.000,-36.621,-36.621,-77.148,0.000,0
1639814245.207,-662.109,-36.133,-49.805,-41.992,0.000,0
1639814245.211,846.680,-34.668,-62.012,-10.254,0.000,0
1639814245.215,522.949,-47.363,-77.148,-67.383,0.000,0
1639814245.219,-897.949,-62.500,-66.895,-100.098,0.000,0
1639814245.222,-1000.000,-61.035,-55.664,-73.242,0.000,0
1639814245.226,-796.875,-42.969,-51.758,-42.480,0.000,0
1639814245.230,617.188,-9.277,-37.598,-21.973,0.000,0
1639814245.234,789.062,-21.973,-54.688,-70.312,0.000,0
1639814245.238,-665.527,-46.387,-58.594,-94.238,0.000,0
1639814245.242,-1000.000,-40.039,-48.340,-67.871,0.000,0
1639814245.246,-885.254,-35.645,-46.875,-54.688,0.000,0
1639814245.250,397.461,-37.109,-61.035,-38.086,0.000,0
1639814245.254,961.914,-34.668,-72.754,-59.570,0.000,0
1639814245.258,-446.777,-39.062,-55.176,-123.535,0.000,0
1639814245.262,-1000.000,-46.387,-47.852,-95.215,0.000,0
1639814245.266,-995.117,-42.480,-48.828,-47.852,0.000,0
1639814245.270,90.820,-37.109,-57.129,-8.301,0.000,0
1639814245.273,-897.949,-34.668,-61.523,-23.926,0.000,0
1639814245.277,-166.016,-36.133,-26.855,-93.750,0.000,0
1639814245.281,-1000.000,-42.480,-28.809,-80.566,0.000,0
1639814245.285,-1000.000,-41.504,-47.363,-45.898,0.000,0
1639814245.289,-58.105,-33.691,-41.016,-7.812,0.000,0
1639814245.293,-849.609,-31.738,-53.223,-42.969,0.000,0
1639814245.297,-7.812,-43.945,-60.547,-97.656,0.000,0
1639814245.301,-1000.000,-48.340,-47.363,-88.867,0.000,0
1639814245.305,-954.590,-34.668,-38.574,-54.199,0.000,0
1639814245.309,31.250,-24.902,-54.688,0.000,0.000,0
1639814245.312,-859.375,-32.227,-77.637,8.789,0.000,0
1639814245.316,68.848,-45.898,-75.195,-58.105,0.000,0
1639814245.320,-1000.000,-35.156,-46.387,-83.008,0.000,0
1639814245.324,-1000.000,-31.250,-30.762,-58.594,0.000,0
1639814245.328,-349.609,-48.828,-53.223,-20.020,0.000,0
1639814245.332,-868.164,-47.363,-73.730,-19.531,0.000,0
1639814245.336,215.332,-32.715,-50.781,-91.797,0.000,0
1639814245.340,-1000.000,-30.762,-40.039,-83.008,0.000,0
1639814245.344,-1000.000,-31.250,-41.016,-34.668,0.000,0
1639814245.348,-415.527,-29.297,-36.133,-20.020,0.000,0
1639814245.351,-904.297,-22.461,-45.898,-32.227,0.000,0
1639814245.355,285.645,-27.832,-53.711,-72.754,0.000,0
1639814245.359,-1000.000,-49.805,-79.102,-50.293,0.000,0
1639814245.363,-1000.000,-48.340,-79.102,-36.133,0.000,0
1639814245.367,-498.535,-21.973,-44.434,-53.223,0.000,0
1639814245.371,983.887,-24.414,-57.129,-30.762,0.000,0
1639814245.375,585.449,-45.898,-74.219,-63.965,0.000,0
1639814245.378,-785.645,-62.012,-55.664,-85.449,0.000,0
1639814245.383,-1000.000,-50.293,-41.504,-58.105,0.000,0
1639814245.387,-687.500,-40.527,-51.758,-33.691,0.000,0
1639814245.391,728.027,-33.203,-51.758,-0.977,0.000,0
1639814245.394,771.973,-29.297,-37.109,-39.062,0.000,0
1639814245.398,-639.160,-42.969,-41.992,-77.148,0.000,0
1639814245.402,-1000.000,-51.758,-74.219,-30.273,0.000,0
1639814245.406,-734.863,-46.875,-77.637,0.000,0.000,0
1639814245.410,592.773,-28.320,-58.105,11.719,0.000,0
1639814245.414,971.191,-37.598,-52.246,-22.949,0.000,0
1639814245.418,-376.953,-53.223,-54.199,-69.824,0.000,0
1639814245.422,-1000.000,-46.387,-45.410,-44.434,0.000,0
1639814245.425,-874.512,-39.062,-34.668,-28.809,0.000,0
1639814245.430,332.031,-40.527,-43.945,0.977,0.000,0
1639814245.434,-898.438,-50.781,-66.406,-57.617,0.000,0
1639814245.438,-172.363,-58.594,-58.594,-128.906,0.000,0
1639814245.441,-1000.000,-57.129,-46.387,-75.684,0.000,0
1639814245.445,-1000.000,-46.875,-48.340,-40.527,0.000,0
1639814245.449,-18.066,-37.109,-49.805,8.789,0.000,0
1639814245.453,-849.121,-45.898,-68.848,-8.789,0.000,0
1639814245.457,-40.039,-48.340,-78.613,-80.078,0.000,0
1639814245.461,-1000.000,-40.527,-67.383,-66.406,0.000,0
1639814245.465,-1000.000,-42.969,-66.895,-26.367,0.000,0
1639814245.468,-118.164,-20.996,-45.410,22.949,0.000,0
1639814245.472,-822.266,-15.137,-36.621,-0.488,0.000,0
1639814245.477,81.055,-42.480,-58.594,-72.266,0.000,0
1639814245.481,-1000.000,-42.480,-51.270,-57.129,0.000,0
1639814245.484,-1000.000,-31.738,-25.879,-21.484,0.000,0
1639814245.488,-189.453,-24.902,-26.367,18.066,0.000,0
1639814245.492,-824.219,-33.203,-56.641,10.254,0.000,0
1639814245.496,168.457,-51.270,-69.824,-40.527,0.000,0
1639814245.500,-1000.000,-43.457,-39.551,-43.457,0.000,0
1639814245.504,-1000.000,-31.738,-23.438,-23.926,0.000,0
1639814245.508,-372.559,-46.387,-54.199,15.137,0.000,0
1639814245.511,-891.113,-43.945,-73.242,28.320,0.000,0
1639814245.515,349.121,-33.691,-69.336,-44.922,0.000,0
1639814245.519,-956.055,-36.621,-60.547,-57.129,0.000,0
1639814245.524,-1000.000,-40.039,-43.945,-20.020,0.000,0
1639814245.527,-476.074,-34.668,-34.668,-12.695,0.000,0
1639814245.531,-967.773,-15.625,-38.574,-6.836,0.000,0
1639814245.535,421.387,-27.832,-46.387,-54.688,0.000,0
1639814245.539,-936.523,-45.898,-52.734,-70.312,0.000,0
1639814245.543,-1000.000,-43.945,-65.430,-29.297,0.000,0
1639814245.547,-689.453,-33.203,-61.523,-21.484,0.000,0
1639814245.551,797.363,-24.414,-48.828,7.812,0.000,0
1639814245.554,582.031,-44.434,-64.453,-21.484,0.000,0
1639814245.558,-840.820,-40.527,-58.105,-60.547,0.000,0
1639814245.562,-1000.000,-26.367,-37.109,-32.715,0.000,0
1639814245.566,-789.062,-33.691,-41.504,-24.414,0.000,0
1639814245.570,543.457,-19.531,-46.387,-1.953,0.000,0
1639814245.574,949.219,-22.461,-44.922,-34.180,0.000,0
1639814245.578,-412.598,-32.715,-24.414,-81.055,0.000,0
1639814245.582,-1000.000,-33.203,-23.926,-18.066,0.000,0
1639814245.586,-827.148,-32.227,-34.668,21.484,0.000,0
1639814245.590,412.109,-25.391,-48.828,33.691,0.000,0
1639814245.594,-941.406,-21.484,-64.453,-10.254,0.000,1
1639814245.597,-241.211,-40.039,-68.848,-73.242,0.000,0
1639814245.601,-1000.000,-47.363,-55.176,-52.734,0.000,0
1639814245.605,-971.191,-18.066,-20.020,-46.387,0.000,0
1639814245.609,127.441,-7.812,-18.066,-15.137,0.000,0
1639814245.613,-851.074,-32.227,-40.527,-16.113,0.000,0
1639814245.617,-64.941,-39.062,-48.828,-82.031,0.000,0
1639814245.621,-1000.000,-25.391,-33.691,-82.520,0.000,0
1639814245.625,-1000.000,-26.367,-30.762,-45.898,0.000,0
1639814245.629,-97.168,-12.695,-35.645,1.465,0.000,0
1639814245.633,-888.672,-9.766,-46.387,0.977,0.000,0
1639814245.637,-53.711,-27.344,-49.805,-55.176,0.000,0
1639814245.640,-1000.000,-27.832,-30.762,-40.527,0.000,0
1639814245.644,-1000.000,-37.598,-45.410,5.859,0.000,0
1639814245.648,-158.203,-25.879,-47.363,15.625,0.000,0
1639814245.652,-816.895,-8.301,-32.227,-8.301,0.000,0
1639814245.656,155.273,-29.785,-40.527,-59.570,0.000,0
1639814245.660,-1000.000,-35.645,-34.180,-67.383,0.000,0
1639814245.664,-1000.000,-23.926,-15.137,-45.898,0.000,0
1639814245.668,-292.480,-22.461,-12.207,-13.184,0.000,0
1639814245.672,-854.004,-28.809,-53.711,-9.766,0.000,0
1639814245.676,301.758,-40.039,-64.453,-68.848,0.000,0
1639814245.679,-970.215,-42.969,-31.738,-76.660,0.000,0
1639814245.683,-1000.000,-40.039,-31.738,-33.691,0.000,0
1639814245.687,-437.988,-46.387,-41.992,25.879,0.000,0
1639814245.691,-959.961,-45.898,-48.828,57.617,0.000,0
1639814245.695,491.211,-25.391,-44.434,-27.832,0.000,0
1639814245.699,-855.957,-26.367,-47.852,-82.031,0.000,0
1639814245.703,-1000.000,-34.668,-41.992,-33.691,0.000,0
1639814245.706,-490.723,-29.297,-35.156,4.395,0.000,0
1639814245.711,948.242,-18.066,-46.387,4.395,0.000,0
1639814245.715,692.383,-29.297,-60.059,-29.785,0.000,0
1639814245.718,-675.781,-44.922,-57.129,-58.105,0.000,0
