timestamps,TP9,AF7,AF8,TP10,Right AUX, Marker
1644802513.592,-97.656,-35.156,-41.992,-52.734,0.000,0
1644802513.596,-80.078,-29.297,-35.156,-39.062,0.000,0
1644802513.600,-65.918,-28.320,-33.691,-37.109,0.000,0
1644802513.603,-71.289,-28.320,-38.086,-39.551,0.000,0
1644802513.607,-90.820,-33.691,-39.551,-38.574,0.000,0
1644802513.611,-76.172,-39.062,-35.156,-35.645,0.000,0
1644802513.615,-68.848,-34.668,-40.039,-36.621,0.000,0
1644802513.619,-75.684,-27.832,-44.434,-38.086,0.000,0
1644802513.623,-70.801,-29.297,-42.480,-28.320,0.000,0
1644802513.626,-78.125,-33.203,-41.504,-20.996,0.000,0
1644802513.630,-87.891,-29.297,-40.039,-39.551,0.000,0
1644802513.634,-73.730,-29.785,-34.668,-43.945,0.000,0
1644802513.639,-59.570,-29.297,-30.762,-32.715,0.000,0
1644802513.643,-49.316,-23.438,-32.715,-41.992,0.000,0
1644802513.647,-56.641,-29.297,-36.621,-43.457,0.000,0
1644802513.651,-82.520,-36.133,-39.551,-42.969,0.000,0
1644802513.655,-75.684,-29.785,-34.668,-44.922,0.000,0
1644802513.659,-52.734,-21.484,-34.668,-28.809,0.000,0
1644802513.663,-63.965,-24.414,-42.480,-23.926,0.000,0
1644802513.666,-73.730,-33.691,-44.922,-35.645,0.000,0
1644802513.670,-75.684,-34.668,-40.039,-43.945,0.000,0
1644802513.674,-73.242,-29.297,-42.969,-51.270,0.000,0
1644802513.678,-57.617,-23.926,-46.387,-47.363,0.000,0
1644802513.682,-63.965,-24.414,-46.875,-37.598,0.000,0
1644802513.691,-80.078,-32.715,-51.758,-31.738,0.000,0
1644802513.695,-89.844,-40.527,-44.434,-38.574,0.000,0
1644802513.699,-73.730,-39.551,-35.645,-48.828,0.000,0
1644802513.703,-54.688,-29.785,-35.156,-33.203,0.000,0
1644802513.707,-56.152,-24.414,-37.598,-20.020,0.000,0
1644802513.711,-68.359,-28.809,-44.922,-30.273,0.000,0
1644802513.715,-80.566,-39.062,-47.852,-32.227,0.000,0
1644802513.719,-68.359,-38.574,-43.945,-32.715,0.000,0
1644802513.723,-56.641,-21.973,-39.551,-39.062,0.000,0
1644802513.727,-56.641,-20.020,-39.062,-41.016,0.000,0
1644802513.731,-78.613,-34.668,-46.875,-43.945,0.000,0
1644802513.735,-92.773,-37.598,-49.316,-33.203,0.000,0
1644802513.757,-74.219,-33.691,-46.387,-34.180,0.000,0
1644802513.761,-60.547,-30.273,-43.945,-38.574,0.000,0
1644802513.766,-61.523,-25.879,-47.363,-32.227,0.000,0
1644802513.770,-69.824,-29.785,-51.758,-31.250,0.000,0
1644802513.775,-86.426,-35.156,-46.387,-35.645,0.000,0
1644802513.779,-84.473,-34.668,-40.527,-39.551,0.000,0
1644802513.783,-62.012,-32.715,-41.504,-45.898,0.000,0
1644802513.788,-50.781,-27.832,-43.457,-41.016,0.000,0
1644802513.792,-71.289,-27.832,-46.387,-36.133,0.000,0
1644802513.797,-87.402,-28.809,-44.434,-33.691,0.000,0
1644802513.801,-91.797,-29.297,-41.992,-36.133,0.000,0
1644802513.805,-81.543,-30.762,-38.574,-49.316,0.000,0
1644802513.829,-64.453,-24.414,-37.598,-41.504,0.000,0
1644802513.834,-64.941,-29.785,-42.969,-22.949,0.000,0
1644802513.838,-81.543,-43.457,-46.875,-32.227,0.000,0
1644802513.843,-89.844,-40.039,-41.016,-53.223,0.000,0
1644802513.848,-67.871,-28.809,-35.645,-41.504,0.000,0
1644802513.852,-55.664,-24.414,-35.645,-24.902,0.000,0
1644802513.857,-66.406,-20.996,-35.645,-27.344,0.000,0
1644802513.862,-74.707,-32.227,-36.621,-31.738,0.000,0
1644802513.867,-77.148,-43.945,-37.109,-36.621,0.000,0
1644802513.871,-72.266,-34.180,-41.504,-41.504,0.000,0
1644802513.876,-69.824,-26.367,-45.898,-39.062,0.000,0
1644802513.881,-74.707,-24.414,-46.875,-49.805,0.000,0
1644802513.916,-75.684,-27.344,-48.828,-58.105,0.000,0
1644802513.921,-74.219,-30.762,-45.898,-54.688,0.000,0
1644802513.926,-61.035,-25.879,-42.480,-57.129,0.000,0
1644802513.932,-49.805,-17.578,-42.480,-50.781,0.000,0
1644802513.937,-48.828,-15.625,-39.062,-35.156,0.000,0
1644802513.942,-59.570,-21.484,-40.039,-22.949,0.000,0
1644802513.947,-76.660,-28.320,-43.945,-27.344,0.000,0
1644802513.952,-76.660,-29.297,-43.457,-33.203,0.000,0
1644802513.957,-63.477,-22.461,-40.039,-18.555,0.000,0
1644802513.962,-54.199,-28.320,-38.574,-13.672,0.000,0
1644802513.968,-62.988,-31.738,-38.086,-35.645,0.000,0
1644802513.973,-72.266,-25.391,-36.621,-34.668,0.000,0
1644802513.997,-69.824,-26.855,-37.109,-33.203,0.000,0
1644802514.002,-55.664,-27.832,-36.133,-29.785,0.000,0
1644802514.008,-60.547,-25.391,-36.621,-17.090,0.000,0
1644802514.013,-71.289,-25.391,-40.527,-20.996,0.000,0
1644802514.019,-75.195,-26.367,-42.969,-26.367,0.000,0
1644802514.024,-65.430,-29.297,-41.992,-23.926,0.000,0
1644802514.029,-48.340,-31.738,-40.039,-22.949,0.000,0
1644802514.035,-57.617,-30.273,-34.668,-25.391,0.000,0
1644802514.040,-64.941,-29.297,-34.180,-11.719,0.000,0
1644802514.045,-72.266,-32.227,-43.457,-14.160,0.000,0
1644802514.051,-80.566,-30.762,-39.062,-36.621,0.000,0
1644802514.056,-65.430,-29.297,-35.156,-44.434,0.000,0
1644802514.075,-66.895,-31.250,-41.992,-42.969,0.000,0
1644802514.080,-91.309,-33.203,-45.410,-41.016,0.000,0
1644802514.086,-89.844,-38.086,-50.781,-34.180,0.000,0
1644802514.091,-81.055,-35.645,-46.387,-36.133,0.000,0
1644802514.097,-70.312,-35.156,-37.109,-37.109,0.000,0
1644802514.102,-50.293,-36.133,-31.250,-36.133,0.000,0
1644802514.108,-45.410,-28.809,-30.273,-21.973,0.000,0
1644802514.113,-71.777,-28.320,-39.551,-25.879,0.000,0
1644802514.119,-78.125,-31.250,-38.086,-48.340,0.000,0
1644802514.124,-60.547,-25.879,-34.180,-34.180,0.000,0
1644802514.130,-57.129,-24.902,-34.668,-23.926,0.000,0
1644802514.135,-64.453,-25.391,-34.668,-33.691,0.000,0
1644802514.145,-78.125,-31.738,-43.457,-35.645,0.000,0
1644802514.151,-76.660,-41.016,-43.945,-45.410,0.000,0
1644802514.157,-68.359,-32.715,-35.645,-50.781,0.000,0
1644802514.162,-58.594,-23.926,-41.992,-38.086,0.000,0
1644802514.168,-52.246,-31.738,-43.457,-20.996,0.000,0
1644802514.173,-76.660,-38.086,-42.969,-26.855,0.000,0
1644802514.179,-85.449,-39.062,-47.852,-45.410,0.000,0
1644802514.184,-61.035,-34.668,-43.457,-40.527,0.000,0
1644802514.190,-45.410,-28.809,-40.039,-31.738,0.000,0
1644802514.195,-47.852,-26.367,-38.574,-23.438,0.000,0
1644802514.201,-63.965,-29.297,-37.598,-20.508,0.000,0
1644802514.206,-68.359,-37.598,-39.062,-17.578,0.000,0
1644802514.211,-51.270,-33.691,-33.203,-17.578,0.000,0
1644802514.217,-46.875,-24.414,-34.668,-29.785,0.000,0
1644802514.222,-48.828,-24.414,-35.645,-18.066,0.000,1
1644802514.228,-61.523,-28.809,-32.227,-13.672,0.000,0
1644802514.233,-79.102,-35.156,-40.039,-21.973,0.000,0
1644802514.239,-67.871,-36.621,-45.898,-26.855,0.000,0
1644802514.244,-42.969,-31.250,-42.969,-38.086,0.000,0
1644802514.250,-27.832,-31.250,-43.945,-32.715,0.000,0
1644802514.256,-41.504,-31.250,-45.410,-26.855,0.000,0
1644802514.261,-78.613,-29.297,-48.340,-34.180,0.000,0
1644802514.267,-72.754,-31.250,-50.781,-36.621,0.000,0
1644802514.272,-53.711,-30.273,-43.945,-35.645,0.000,0
1644802514.271,-52.734,-32.715,-42.969,-29.297,0.000,0
1644802514.276,-65.430,-38.086,-41.992,-24.414,0.000,0
1644802514.282,-74.707,-38.574,-36.133,-36.133,0.000,0
1644802514.287,-59.082,-34.180,-35.645,-45.898,0.000,0
1644802514.293,-45.898,-30.762,-38.574,-42.969,0.000,0
1644802514.298,-55.664,-30.762,-38.086,-34.668,0.000,0
1644802514.304,-60.059,-40.039,-41.504,-21.484,0.000,0
1644802514.309,-67.871,-41.504,-42.480,-15.625,0.000,0
1644802514.315,-79.590,-31.738,-36.621,-29.297,0.000,0
1644802514.320,-53.223,-20.508,-31.738,-26.855,0.000,0
1644802514.326,-26.367,-12.207,-33.691,1.465,0.000,0
1644802514.331,-34.668,-13.184,-27.832,-1.953,0.000,0
1644802514.325,-75.684,-25.391,-21.973,-31.738,0.000,0
1644802514.330,-82.031,-33.691,-24.902,-38.086,0.000,0
1644802514.336,-53.223,-28.809,-24.414,-24.902,0.000,0
1644802514.341,-44.922,-25.879,-23.438,-20.996,0.000,0
1644802514.347,-49.805,-26.367,-20.508,-25.879,0.000,0
1644802514.352,-62.500,-41.016,-20.020,-30.273,0.000,0
1644802514.357,-60.059,-51.758,-26.367,-39.062,0.000,0
1644802514.363,-53.223,-47.363,-21.484,-40.039,0.000,0
1644802514.368,-55.176,-42.969,-15.137,-28.809,0.000,0
1644802514.374,-48.340,-41.016,-21.484,-10.742,0.000,0
1644802514.379,-55.664,-42.969,-18.066,-10.742,0.000,0
1644802514.384,-71.289,-44.922,-15.137,-23.926,0.000,0
1644802514.376,-57.617,-37.598,-16.602,-22.461,0.000,0
1644802514.381,-39.551,-33.691,-13.672,-11.230,0.000,0
1644802514.387,-43.457,-42.480,-17.090,-4.883,0.000,0
1644802514.392,-72.754,-43.945,-21.484,-18.066,0.000,0
1644802514.397,-88.379,-40.039,-20.508,-28.320,0.000,0
1644802514.403,-67.871,-34.180,-17.090,-26.367,0.000,0
1644802514.408,-44.922,-36.133,-14.160,-24.414,0.000,0
1644802514.413,-49.805,-41.016,-20.996,-13.672,0.000,0
1644802514.418,-83.984,-45.410,-34.180,-16.113,0.000,0
1644802514.424,-95.215,-51.758,-37.109,-29.297,0.000,0
1644802514.429,-77.637,-47.363,-29.785,-35.645,0.000,0
1644802514.434,-66.895,-36.621,-25.391,-21.973,0.000,0
1644802514.423,-63.477,-34.180,-28.320,-18.555,0.000,0
1644802514.428,-65.918,-37.598,-32.227,-31.250,0.000,0
1644802514.433,-77.637,-38.574,-38.574,-30.762,0.000,0
1644802514.438,-64.941,-39.062,-33.203,-22.461,0.000,0
1644802514.443,-52.246,-42.480,-23.438,-20.020,0.000,0
1644802514.449,-51.270,-40.527,-25.879,-26.855,0.000,0
1644802514.454,-58.594,-38.086,-38.086,-26.855,0.000,0
1644802514.459,-80.566,-38.574,-46.875,-24.414,0.000,0
1644802514.464,-75.684,-40.527,-41.992,-35.156,0.000,0
1644802514.470,-62.988,-36.621,-36.621,-48.828,0.000,0
1644802514.475,-53.711,-31.250,-36.133,-50.293,0.000,0
1644802514.480,-66.895,-38.574,-39.551,-34.668,0.000,0
1644802514.466,-78.613,-48.828,-36.621,-20.508,0.000,0
1644802514.471,-68.359,-48.828,-29.785,-24.902,0.000,0
1644802514.476,-54.199,-34.180,-19.531,-29.297,0.000,0
1644802514.481,-52.734,-29.785,-25.391,-32.227,0.000,0
1644802514.486,-59.570,-38.086,-37.598,-29.297,0.000,0
1644802514.491,-62.988,-43.457,-34.668,-21.973,0.000,0
1644802514.496,-72.754,-39.551,-33.203,-38.086,0.000,0
1644802514.501,-64.453,-34.180,-34.668,-44.434,0.000,0
1644802514.506,-50.293,-34.668,-31.738,-27.832,0.000,0
1644802514.511,-52.246,-34.668,-27.344,-22.461,0.000,0
1644802514.517,-69.336,-41.016,-36.133,-37.109,0.000,0
1644802514.522,-61.523,-45.898,-47.852,-55.664,0.000,0
1644802514.507,-36.621,-42.480,-39.062,-42.480,0.000,0
1644802514.512,-48.340,-37.598,-39.062,-30.273,0.000,0
1644802514.517,-63.477,-32.715,-46.387,-33.691,0.000,0
1644802514.522,-65.430,-33.691,-39.551,-35.156,0.000,0
1644802514.527,-69.336,-38.574,-34.180,-29.297,0.000,0
1644802514.532,-62.500,-36.133,-31.250,-45.410,0.000,0
1644802514.537,-47.363,-26.367,-29.785,-37.598,0.000,0
1644802514.542,-50.293,-23.926,-29.785,-11.719,0.000,0
1644802514.547,-63.965,-31.250,-33.691,-16.113,0.000,0
1644802514.552,-66.406,-30.762,-37.109,-30.762,0.000,0
1644802514.557,-60.059,-25.391,-30.762,-46.387,0.000,0
1644802514.562,-52.246,-28.809,-28.809,-32.227,0.000,0
1644802514.545,-57.129,-30.762,-38.086,-22.949,0.000,0
1644802514.550,-67.871,-34.180,-39.062,-39.551,0.000,0
1644802514.555,-72.754,-34.180,-33.691,-45.898,0.000,0
1644802514.560,-71.777,-38.086,-37.598,-48.828,0.000,0
1644802514.564,-57.617,-37.598,-40.039,-37.598,0.000,0
1644802514.569,-45.410,-29.297,-36.621,-32.715,0.000,0
1644802514.574,-62.012,-37.598,-34.180,-43.945,0.000,0
1644802514.579,-79.590,-49.805,-29.297,-48.828,0.000,0
1644802514.584,-70.312,-48.828,-29.785,-39.551,0.000,0
1644802514.589,-51.758,-34.180,-31.250,-37.109,0.000,0
1644802514.594,-58.105,-28.809,-30.273,-43.457,0.000,0
1644802514.599,-73.242,-37.109,-31.250,-18.555,0.000,0
1644802514.580,-81.055,-43.945,-33.691,-20.020,0.000,0
1644802514.585,-77.637,-36.133,-31.738,-52.734,0.000,0
1644802514.590,-57.617,-29.785,-26.855,-38.574,0.000,0
1644802514.595,-55.664,-32.227,-27.832,-26.855,0.000,0
1644802514.600,-62.012,-34.180,-27.344,-24.902,0.000,0
1644802514.604,-74.219,-37.109,-28.320,-19.531,0.000,0
1644802514.609,-72.754,-36.133,-29.297,-25.879,0.000,0
1644802514.614,-46.875,-34.180,-25.391,-27.344,0.000,0
1644802514.619,-41.504,-36.621,-30.762,-32.715,0.000,0
1644802514.623,-61.523,-32.227,-35.156,-35.156,0.000,0
1644802514.628,-81.543,-34.668,-35.645,-25.879,0.000,0
1644802514.633,-80.078,-42.480,-37.109,-22.949,0.000,0
1644802514.614,-66.406,-39.551,-33.691,-31.738,0.000,0
1644802514.618,-60.547,-32.715,-28.809,-32.227,0.000,0
1644802514.623,-61.035,-33.691,-28.320,-16.113,0.000,0
1644802514.628,-68.359,-36.133,-30.762,-24.902,0.000,0
1644802514.632,-75.195,-32.715,-30.762,-42.480,0.000,0
1644802514.637,-57.129,-31.250,-36.133,-50.781,0.000,0
1644802514.642,-36.133,-33.691,-38.086,-47.852,0.000,0
1644802514.646,-42.480,-32.715,-42.969,-33.691,0.000,0
1644802514.651,-60.059,-31.250,-43.457,-25.391,0.000,0
1644802514.656,-61.523,-35.645,-37.109,-44.922,0.000,0
1644802514.661,-50.781,-40.527,-39.062,-39.062,0.000,0
1644802514.665,-42.480,-40.039,-34.668,-24.414,0.000,0
1644802514.646,-51.270,-33.203,-35.156,-36.133,0.000,0
1644802514.651,-69.336,-37.109,-42.969,-47.363,0.000,0
1644802514.655,-70.312,-41.016,-43.945,-44.434,0.000,0
1644802514.660,-51.758,-32.715,-38.086,-32.227,0.000,0
1644802514.664,-43.945,-26.855,-32.715,-39.551,0.000,0
1644802514.669,-41.504,-32.227,-37.109,-34.668,0.000,0
1644802514.674,-63.477,-43.457,-42.969,-22.949,0.000,0
1644802514.678,-85.938,-43.945,-41.016,-32.715,0.000,0
1644802514.683,-54.199,-35.156,-37.109,-44.434,0.000,0
1644802514.687,-45.410,-36.133,-36.133,-41.016,0.000,0
1644802514.692,-62.012,-44.922,-38.086,-30.762,0.000,0
1644802514.696,-73.242,-39.551,-35.645,-34.668,0.000,0
1644802514.681,-93.262,-34.668,-39.551,-50.781,0.000,0
1644802514.685,-80.566,-37.109,-41.016,-50.293,0.000,0
1644802514.690,-52.734,-31.250,-35.645,-38.086,0.000,0
1644802514.694,-49.316,-27.832,-39.062,-36.133,0.000,0
1644802514.699,-65.430,-28.809,-41.504,-41.504,0.000,0
1644802514.703,-72.754,-34.180,-43.945,-31.250,0.000,0
1644802514.708,-53.711,-31.738,-43.945,-31.738,0.000,0
1644802514.712,-51.758,-23.438,-41.992,-40.039,0.000,0
1644802514.717,-58.105,-23.926,-43.945,-35.645,0.000,0
1644802514.721,-59.570,-31.738,-41.016,-33.203,0.000,0
1644802514.726,-64.453,-28.320,-32.227,-40.039,0.000,0
1644802514.730,-55.664,-16.113,-34.180,-44.434,0.000,0
1644802514.716,-35.645,-17.090,-32.227,-31.738,0.000,0
1644802514.720,-31.738,-27.344,-29.785,-37.109,0.000,0
1644802514.725,-48.828,-22.949,-35.645,-34.180,0.000,0
1644802514.729,-63.965,-26.367,-34.668,-35.645,0.000,0
1644802514.733,-71.777,-29.785,-35.156,-44.434,0.000,0
1644802514.738,-61.523,-25.879,-39.062,-33.203,0.000,0
1644802514.742,-48.828,-27.344,-35.645,-33.203,0.000,0
1644802514.747,-42.969,-25.391,-35.156,-32.715,0.000,0
1644802514.751,-57.617,-29.297,-38.574,-30.762,0.000,0
1644802514.756,-75.684,-32.715,-39.062,-34.180,0.000,0
1644802514.760,-65.918,-28.809,-35.156,-45.898,0.000,0
1644802514.764,-55.176,-25.391,-31.738,-46.387,0.000,0
1644802514.752,-50.293,-28.809,-36.133,-39.062,0.000,0
1644802514.756,-59.570,-32.715,-38.574,-38.086,0.000,0
1644802514.760,-65.918,-33.203,-34.668,-36.621,0.000,0
1644802514.765,-52.734,-29.785,-33.203,-38.574,0.000,0
1644802514.769,-35.156,-23.438,-25.879,-34.180,0.000,0
1644802514.773,-30.762,-25.879,-28.320,-26.367,0.000,0
1644802514.778,-55.176,-28.809,-38.086,-27.344,0.000,0
1644802514.782,-72.754,-26.855,-41.016,-32.715,0.000,0
1644802514.786,-50.781,-22.949,-34.180,-32.227,0.000,0
1644802514.791,-41.992,-25.391,-32.227,-36.133,0.000,0
1644802514.795,-43.457,-31.250,-41.016,-40.039,0.000,0
1644802514.800,-43.945,-30.762,-48.340,-28.320,0.000,0
1644802514.788,-60.547,-30.762,-46.875,-31.250,0.000,0
1644802514.792,-64.453,-32.227,-38.574,-35.156,0.000,0
1644802514.797,-55.664,-28.320,-38.574,-36.133,0.000,0
1644802514.801,-49.316,-33.203,-41.504,-40.527,0.000,0
1644802514.805,-54.688,-45.898,-41.504,-32.227,0.000,0
1644802514.810,-60.547,-43.457,-41.992,-25.879,0.000,0
1644802514.814,-63.965,-37.109,-36.133,-35.645,0.000,0
1644802514.818,-52.246,-36.133,-31.738,-33.691,0.000,0
1644802514.822,-49.805,-34.668,-37.598,-17.578,0.000,0
1644802514.827,-67.871,-38.086,-40.039,-25.391,0.000,0
1644802514.831,-80.566,-40.039,-40.527,-37.598,0.000,0
1644802514.835,-79.102,-37.109,-38.086,-43.457,0.000,0
1644802514.826,-55.176,-31.250,-33.691,-43.457,0.000,0
1644802514.830,-60.547,-29.297,-31.250,-42.969,0.000,0
1644802514.835,-77.148,-30.273,-36.133,-40.527,0.000,0
1644802514.839,-74.707,-27.832,-37.109,-35.156,0.000,0
1644802514.843,-58.105,-24.414,-31.250,-40.527,0.000,0
1644802514.847,-46.387,-26.367,-27.344,-37.109,0.000,0
1644802514.852,-49.316,-28.320,-32.227,-35.645,0.000,0
1644802514.856,-51.758,-33.691,-37.598,-23.926,0.000,0
1644802514.860,-67.871,-36.621,-41.504,-23.926,0.000,0
1644802514.864,-77.148,-36.621,-42.480,-41.504,0.000,0
1644802514.869,-58.105,-34.180,-41.992,-43.457,0.000,0
1644802514.873,-48.828,-31.738,-44.922,-45.410,0.000,0
1644802514.866,-61.523,-31.250,-44.434,-36.133,0.000,0
1644802514.870,-87.402,-31.250,-43.945,-32.715,0.000,0
1644802514.874,-83.496,-37.109,-40.039,-47.363,0.000,0
1644802514.878,-58.594,-38.574,-38.574,-37.598,0.000,0
1644802514.883,-63.965,-35.645,-45.410,-33.691,0.000,0
1644802514.887,-66.895,-38.086,-48.340,-32.227,0.000,0
1644802514.891,-68.359,-42.480,-41.016,-27.344,0.000,0
1644802514.895,-68.359,-38.086,-36.133,-35.645,0.000,0
1644802514.900,-56.152,-29.297,-37.109,-40.527,0.000,0
1644802514.904,-40.527,-25.391,-41.016,-35.645,0.000,0
1644802514.908,-33.691,-26.367,-39.551,-26.367,0.000,0
1644802514.912,-52.246,-31.250,-33.691,-14.648,0.000,0
1644802514.904,-68.359,-28.809,-33.691,-12.695,0.000,0
1644802514.908,-59.570,-31.250,-36.621,-41.504,0.000,0
1644802514.912,-44.434,-34.180,-33.691,-54.199,0.000,0
1644802514.916,-48.828,-27.832,-30.762,-34.668,0.000,0
1644802514.920,-64.941,-29.785,-34.668,-34.668,0.000,0
1644802514.924,-65.430,-38.574,-41.992,-46.875,0.000,0
1644802514.929,-58.594,-41.504,-41.016,-41.016,0.000,0
1644802514.933,-49.316,-32.715,-32.715,-29.297,0.000,0
1644802514.937,-58.105,-27.344,-35.156,-25.879,0.000,0
1644802514.941,-65.430,-29.297,-41.992,-31.738,0.000,0
1644802514.945,-71.777,-30.762,-41.504,-39.062,0.000,0
1644802514.950,-77.148,-27.344,-35.156,-30.762,0.000,0
1644802514.942,-62.988,-30.273,-35.645,-29.297,0.000,0
1644802514.946,-60.547,-37.109,-41.016,-20.508,0.000,0
1644802514.950,-65.918,-34.668,-38.574,-3.906,0.000,0
1644802514.954,-68.848,-30.273,-35.645,-35.156,0.000,0
1644802514.958,-62.988,-26.855,-39.062,-66.406,0.000,0
1644802514.962,-50.293,-27.344,-40.527,-61.035,0.000,0
1644802514.967,-44.922,-29.785,-38.086,-43.945,0.000,0
1644802514.971,-58.105,-36.133,-38.086,-42.480,0.000,0
1644802514.975,-79.102,-35.645,-37.109,-50.781,0.000,0
1644802514.979,-67.871,-33.203,-30.762,-50.781,0.000,1
1644802514.983,-39.551,-28.809,-26.367,-36.133,0.000,0
1644802514.987,-39.062,-24.414,-30.273,-22.949,0.000,0
1644802514.981,-40.039,-27.832,-37.598,-12.695,0.000,0
1644802514.986,-49.316,-31.250,-41.992,-17.578,0.000,0
1644802514.990,-62.012,-31.738,-38.086,-49.316,0.000,0
1644802514.994,-49.316,-23.438,-34.668,-41.504,0.000,0
1644802514.998,-46.387,-17.090,-44.922,-37.109,0.000,0
1644802515.002,-49.316,-24.902,-48.340,-36.621,0.000,0
1644802515.006,-68.848,-32.227,-43.945,-37.109,0.000,0
1644802515.010,-72.266,-28.809,-38.086,-61.035,0.000,0
1644802515.014,-61.523,-23.926,-34.668,-45.898,0.000,0
1644802515.019,-62.500,-23.926,-40.039,-37.109,0.000,0
1644802515.023,-61.523,-26.367,-42.480,-30.273,0.000,0
1644802515.027,-70.801,-32.715,-44.434,-30.273,0.000,0
1644802515.021,-80.078,-38.574,-46.875,-45.898,0.000,0
1644802515.026,-62.012,-30.273,-43.457,-49.316,0.000,0
1644802515.030,-40.039,-25.391,-41.504,-36.133,0.000,0
1644802515.034,-50.293,-26.855,-41.992,-28.320,0.000,0
1644802515.038,-61.035,-25.391,-39.551,-33.691,0.000,0
1644802515.042,-72.754,-32.715,-37.109,-39.551,0.000,0
1644802515.046,-68.848,-34.180,-39.551,-46.875,0.000,0
1644802515.050,-55.664,-25.879,-42.969,-37.109,0.000,0
1644802515.054,-60.059,-25.879,-44.434,-21.973,0.000,0
1644802515.058,-71.777,-32.715,-46.875,-21.484,0.000,0
1644802515.062,-78.125,-34.180,-43.457,-27.832,0.000,0
1644802515.066,-60.059,-28.320,-37.598,-39.062,0.000,0
1644802515.062,-37.598,-28.809,-37.598,-38.574,0.000,0
1644802515.066,-45.898,-33.691,-40.039,-24.414,0.000,0
1644802515.070,-58.594,-31.738,-37.109,-18.066,0.000,0
1644802515.074,-61.523,-31.250,-31.738,-30.273,0.000,0
1644802515.078,-48.828,-33.203,-33.203,-36.133,0.000,0
1644802515.082,-47.852,-31.738,-41.504,-35.156,0.000,0
1644802515.086,-46.875,-24.414,-35.156,-38.086,0.000,0
1644802515.090,-53.223,-24.902,-32.715,-37.598,0.000,0
1644802515.094,-68.848,-33.691,-42.969,-23.438,0.000,0
1644802515.098,-64.453,-36.621,-40.039,-33.203,0.000,0
1644802515.102,-46.387,-31.250,-31.738,-48.828,0.000,0
1644802515.107,-34.668,-28.320,-29.785,-29.785,0.000,0
1644802515.103,-47.363,-29.297,-30.273,-25.879,0.000,0
1644802515.107,-59.570,-29.785,-35.156,-26.367,0.000,0
1644802515.111,-62.988,-32.227,-41.016,-33.203,0.000,0
1644802515.115,-55.176,-31.738,-38.086,-38.574,0.000,0
1644802515.119,-41.504,-30.273,-37.598,-25.391,0.000,0
1644802515.123,-54.688,-33.691,-43.457,-18.555,0.000,0
1644802515.128,-68.848,-37.598,-48.340,-31.250,0.000,0
1644802515.132,-62.012,-37.598,-46.875,-50.293,0.000,0
1644802515.136,-57.129,-32.227,-43.457,-42.480,0.000,0
1644802515.140,-56.641,-22.461,-37.598,-28.320,0.000,0
1644802515.144,-56.641,-21.484,-28.809,-20.508,0.000,0
1644802515.148,-73.242,-30.762,-30.273,-27.832,0.000,0
1644802515.144,-82.520,-31.250,-40.527,-44.922,0.000,0
1644802515.148,-68.359,-28.320,-37.109,-46.387,0.000,0
1644802515.152,-63.477,-28.809,-34.180,-43.457,0.000,0
1644802515.156,-68.359,-33.691,-41.016,-35.156,0.000,0
1644802515.160,-77.148,-41.016,-37.109,-28.320,0.000,0
1644802515.164,-83.008,-34.180,-27.832,-32.227,0.000,0
1644802515.168,-68.359,-27.832,-27.344,-36.133,0.000,0
1644802515.172,-44.434,-32.227,-33.691,-24.902,0.000,0
1644802515.176,-52.246,-35.645,-32.227,-23.438,0.000,0
1644802515.180,-76.172,-35.156,-36.621,-25.879,0.000,0
1644802515.184,-78.125,-34.668,-47.363,-43.945,0.000,0
1644802515.188,-66.406,-36.621,-45.898,-49.805,0.000,0
1644802515.185,-62.012,-36.133,-41.504,-32.227,0.000,0
1644802515.189,-64.941,-35.156,-43.457,-29.297,0.000,0
1644802515.193,-73.730,-35.645,-44.434,-24.414,0.000,0
1644802515.197,-77.637,-35.156,-37.598,-37.109,0.000,0
1644802515.201,-55.664,-30.273,-31.738,-43.457,0.000,0
1644802515.205,-42.480,-24.902,-27.832,-27.832,0.000,0
1644802515.209,-53.711,-30.762,-32.227,-27.832,0.000,0
1644802515.213,-57.617,-35.156,-42.480,-25.391,0.000,0
1644802515.217,-71.289,-34.180,-42.969,-33.691,0.000,0
1644802515.221,-76.172,-32.227,-40.527,-41.504,0.000,0
1644802515.225,-53.223,-35.645,-40.527,-31.250,0.000,0
1644802515.229,-47.852,-39.551,-39.062,-35.645,0.000,0
1644802515.226,-72.266,-39.551,-39.062,-39.062,0.000,0
1644802515.230,-84.961,-39.551,-44.434,-49.805,0.000,0
1644802515.234,-75.684,-35.156,-40.039,-48.340,0.000,0
1644802515.238,-56.641,-30.762,-32.715,-25.879,0.000,0
1644802515.242,-51.270,-33.203,-37.109,-33.203,0.000,0
1644802515.246,-62.988,-39.551,-41.504,-41.016,0.000,0
1644802515.250,-77.148,-43.457,-41.016,-33.203,0.000,0
1644802515.254,-74.219,-38.574,-36.621,-33.203,0.000,0
1644802515.258,-54.199,-32.715,-35.645,-50.293,0.000,0
1644802515.262,-54.688,-30.273,-33.203,-58.105,0.000,0
1644802515.266,-72.266,-37.598,-35.156,-38.574,0.000,0
1644802515.270,-74.219,-38.086,-33.203,-33.691,0.000,0
1644802515.268,-73.242,-29.297,-23.438,-44.434,0.000,0
1644802515.272,-62.500,-29.297,-28.320,-37.598,0.000,0
1644802515.276,-54.199,-30.762,-37.109,-28.320,0.000,0
1644802515.280,-61.523,-30.273,-39.062,-26.367,0.000,0
1644802515.284,-65.918,-30.762,-44.922,-32.715,0.000,0
1644802515.288,-67.383,-37.598,-40.527,-40.039,0.000,0
1644802515.292,-49.316,-41.992,-37.109,-30.762,0.000,0
1644802515.296,-46.875,-37.598,-41.992,-27.344,0.000,0
1644802515.300,-56.641,-27.344,-44.434,-32.715,0.000,0
1644802515.304,-60.547,-23.438,-41.016,-31.738,0.000,0
1644802515.308,-67.871,-25.391,-34.180,-34.180,0.000,0
1644802515.312,-56.641,-26.367,-38.574,-41.016,0.000,0
1644802515.311,-52.734,-29.297,-40.527,-33.203,0.000,0
1644802515.315,-65.430,-32.227,-38.086,-28.320,0.000,0
1644802515.319,-67.871,-30.762,-33.203,-20.996,0.000,0
1644802515.323,-64.941,-31.738,-25.879,-35.645,0.000,0
1644802515.327,-43.945,-30.762,-27.832,-40.039,0.000,0
1644802515.331,-36.621,-26.855,-36.621,-22.461,0.000,0
1644802515.335,-51.270,-27.344,-36.133,-21.973,0.000,0
1644802515.339,-67.871,-30.273,-31.738,-17.090,0.000,0
1644802515.343,-63.965,-30.762,-37.598,-21.484,0.000,0
1644802515.347,-50.781,-31.738,-39.062,-22.461,0.000,0
1644802515.351,-48.828,-27.344,-33.203,-12.207,0.000,0
1644802515.354,-51.270,-22.949,-34.180,-32.715,0.000,0
1644802515.354,-63.965,-29.785,-42.969,-37.598,0.000,0
1644802515.358,-68.359,-32.227,-42.969,-33.691,0.000,0
1644802515.362,-59.082,-29.785,-37.109,-39.062,0.000,0
1644802515.366,-51.758,-22.461,-31.250,-35.156,0.000,0
1644802515.370,-56.641,-28.320,-32.715,-33.691,0.000,0
1644802515.374,-60.547,-33.203,-43.457,-29.785,0.000,0
1644802515.378,-64.453,-32.715,-51.270,-36.621,0.000,0
1644802515.382,-62.012,-38.086,-44.434,-46.875,0.000,0
1644802515.386,-49.316,-35.156,-37.109,-38.574,0.000,0
1644802515.390,-39.062,-29.297,-34.180,-18.555,0.000,0
1644802515.394,-59.082,-27.832,-32.227,-23.926,0.000,0
1644802515.398,-73.730,-38.086,-35.645,-27.344,0.000,0
1644802515.397,-65.430,-41.504,-36.621,-28.809,0.000,0
1644802515.401,-54.688,-29.785,-30.762,-28.320,0.000,0
1644802515.405,-42.969,-22.949,-25.391,-19.043,0.000,0
1644802515.409,-56.152,-28.809,-36.621,-19.531,0.000,0
1644802515.413,-73.242,-37.598,-38.574,-21.484,0.000,0
1644802515.417,-67.383,-40.527,-34.668,-26.855,0.000,0
1644802515.421,-54.688,-35.156,-39.062,-33.691,0.000,0
1644802515.424,-61.035,-35.156,-38.574,-36.133,0.000,0
1644802515.428,-56.152,-37.598,-36.621,-30.273,0.000,0
1644802515.432,-62.988,-36.621,-42.480,-30.762,0.000,0
1644802515.436,-72.266,-33.691,-39.551,-45.410,0.000,0
1644802515.440,-58.105,-27.344,-26.367,-42.969,0.000,0
1644802515.440,-51.758,-28.809,-27.344,-27.344,0.000,0
1644802515.443,-61.035,-37.598,-39.062,-25.391,0.000,0
1644802515.447,-79.102,-40.039,-41.016,-30.273,0.000,0
1644802515.451,-86.914,-34.180,-40.039,-33.691,0.000,0
1644802515.455,-62.988,-26.855,-38.574,-39.062,0.000,0
1644802515.459,-46.387,-20.996,-34.180,-33.691,0.000,0
1644802515.463,-65.430,-26.367,-36.133,-40.039,0.000,0
1644802515.467,-76.172,-29.297,-32.227,-40.039,0.000,0
1644802515.471,-68.848,-27.344,-29.297,-31.738,0.000,0
1644802515.475,-61.523,-26.367,-31.250,-38.574,0.000,0
1644802515.479,-63.965,-21.973,-29.785,-32.715,0.000,0
1644802515.483,-62.988,-23.438,-27.832,-20.508,0.000,0
1644802515.482,-62.012,-30.762,-32.715,-18.066,0.000,0
1644802515.486,-74.707,-32.715,-37.598,-26.855,0.000,0
1644802515.490,-72.754,-28.320,-34.668,-37.109,0.000,0
1644802515.494,-62.988,-29.785,-36.133,-48.828,0.000,0
1644802515.498,-64.941,-32.715,-39.551,-39.551,0.000,0
1644802515.502,-72.754,-38.086,-39.062,-24.414,0.000,0
1644802515.506,-80.566,-40.527,-36.621,-26.367,0.000,0
1644802515.510,-61.035,-39.551,-36.133,-31.250,0.000,0
1644802515.514,-41.992,-35.645,-42.480,-30.273,0.000,0
1644802515.518,-49.316,-21.484,-39.062,-34.668,0.000,0
1644802515.522,-60.059,-28.320,-37.109,-37.598,0.000,0
1644802515.526,-68.359,-38.086,-43.945,-46.875,0.000,0
1644802515.525,-65.918,-34.668,-44.922,-56.641,0.000,0
1644802515.529,-59.570,-30.273,-35.645,-47.852,0.000,0
1644802515.533,-46.387,-31.738,-32.715,-40.039,0.000,0
1644802515.537,-54.199,-36.621,-40.039,-35.156,0.000,0
1644802515.541,-83.008,-34.180,-41.504,-22.949,0.000,0
1644802515.545,-83.008,-29.297,-41.016,-39.062,0.000,0
1644802515.549,-58.594,-36.133,-41.016,-46.875,0.000,0
1644802515.553,-52.734,-42.969,-39.551,-23.926,0.000,0
1644802515.557,-75.684,-43.457,-41.504,-34.668,0.000,0
1644802515.561,-89.844,-46.875,-44.922,-47.852,0.000,0
1644802515.565,-76.172,-42.969,-44.434,-52.734,0.000,0
1644802515.569,-59.082,-35.156,-42.480,-67.383,0.000,0
1644802515.568,-71.289,-30.273,-41.992,-64.941,0.000,0
1644802515.572,-85.449,-33.203,-43.945,-51.758,0.000,0
1644802515.576,-86.426,-41.992,-45.410,-46.387,0.000,0
1644802515.580,-80.078,-39.062,-43.457,-50.293,0.000,0
1644802515.584,-59.082,-29.785,-41.504,-51.270,0.000,0
1644802515.588,-41.016,-31.738,-40.527,-42.480,0.000,0
1644802515.592,-42.969,-36.621,-35.156,-30.762,0.000,0
1644802515.596,-61.523,-43.945,-36.621,-19.043,0.000,0
1644802515.600,-62.012,-40.039,-35.156,-20.020,0.000,0
1644802515.604,-41.992,-28.320,-35.645,-34.668,0.000,0
1644802515.608,-47.852,-23.926,-43.457,-43.945,0.000,0
1644802515.612,-56.641,-25.879,-41.992,-38.086,0.000,0
1644802515.612,-67.871,-29.297,-44.434,-41.504,0.000,0
1644802515.616,-74.219,-23.926,-52.246,-64.941,0.000,0
1644802515.620,-65.918,-20.996,-50.781,-68.359,0.000,0
1644802515.624,-53.223,-9.766,-47.363,-54.688,0.000,0
1644802515.628,-52.734,-4.883,-53.223,-53.711,0.000,0
1644802515.632,-78.125,-12.207,-57.617,-55.176,0.000,0
1644802515.636,-100.098,-20.996,-62.500,-65.918,0.000,0
1644802515.640,-97.168,-22.461,-64.941,-89.844,0.000,0
1644802515.644,-86.426,-21.973,-64.941,-84.961,0.000,0
1644802515.648,-80.078,-27.832,-63.965,-63.965,0.000,0
1644802515.652,-91.309,-25.391,-60.547,-58.594,0.000,0
1644802515.655,-99.609,-24.414,-57.129,-63.477,0.000,0
1644802515.656,-82.520,-18.555,-56.641,-77.148,0.000,0
1644802515.659,-53.711,-17.090,-55.664,-81.543,0.000,0
1644802515.663,-42.480,-17.090,-48.340,-68.848,0.000,0
1644802515.667,-74.707,-16.602,-47.363,-60.547,0.000,0
1644802515.671,-94.238,-18.555,-52.734,-62.012,0.000,0
1644802515.675,-72.266,-16.113,-54.199,-68.848,0.000,0
1644802515.679,-56.152,-19.531,-52.246,-62.988,0.000,0
1644802515.683,-56.641,-15.137,-48.828,-52.734,0.000,0
1644802515.687,-71.289,-16.602,-50.293,-47.363,0.000,0
1644802515.691,-72.754,-28.320,-48.828,-29.785,0.000,0
1644802515.695,-61.523,-26.367,-45.410,-32.227,0.000,0
1644802515.698,-52.246,-13.184,-41.992,-41.016,0.000,0
1644802515.700,-42.969,-14.648,-38.086,-42.969,0.000,0
1644802515.704,-59.082,-26.855,-45.410,-44.434,0.000,0
1644802515.708,-78.125,-31.250,-52.734,-41.016,0.000,0
1644802515.712,-75.195,-32.227,-47.852,-49.805,0.000,0
1644802515.716,-56.641,-28.320,-45.410,-36.133,0.000,0
1644802515.720,-47.852,-23.926,-46.387,-30.762,0.000,0
1644802515.724,-70.801,-29.297,-43.457,-36.621,0.000,0
1644802515.728,-88.379,-37.598,-41.504,-27.832,0.000,0
1644802515.732,-81.543,-40.527,-42.480,-38.086,0.000,0
1644802515.735,-66.895,-35.156,-38.086,-46.875,0.000,0
1644802515.739,-58.594,-27.344,-35.156,-43.457,0.000,0
1644802515.743,-58.105,-27.832,-42.480,-42.969,0.000,0
1644802515.744,-76.172,-35.645,-40.527,-33.203,0.000,0
1644802515.748,-72.266,-35.156,-36.133,-47.363,0.000,0
1644802515.752,-47.363,-25.879,-34.668,-63.965,0.000,0
1644802515.756,-56.152,-30.273,-34.180,-45.410,0.000,0
1644802515.760,-69.336,-32.715,-39.062,-31.250,0.000,0
1644802515.764,-69.824,-29.785,-45.898,-29.297,0.000,1
1644802515.768,-76.172,-29.785,-45.410,-32.715,0.000,0
1644802515.772,-60.059,-27.344,-45.410,-45.898,0.000,0
1644802515.776,-41.504,-25.391,-47.363,-34.180,0.000,0
1644802515.780,-44.922,-26.367,-42.969,-24.414,0.000,0
1644802515.783,-66.895,-32.227,-43.945,-32.227,0.000,0
1644802515.787,-82.520,-39.062,-48.828,-42.969,0.000,0
1644802515.789,-69.824,-40.527,-50.781,-37.598,0.000,0
1644802515.792,-68.359,-34.180,-42.969,-19.043,0.000,0
1644802515.796,-66.895,-23.926,-41.016,-31.738,0.000,0
1644802515.800,-62.988,-25.391,-41.504,-43.457,0.000,0
1644802515.804,-85.449,-27.344,-37.598,-49.316,0.000,0
1644802515.808,-85.938,-29.785,-42.969,-58.594,0.000,0
1644802515.812,-70.801,-33.691,-43.945,-53.223,0.000,0
1644802515.816,-65.918,-34.668,-43.457,-40.527,0.000,0
1644802515.820,-74.219,-37.598,-45.898,-25.391,0.000,0
1644802515.824,-76.660,-30.273,-39.062,-28.809,0.000,0
1644802515.828,-72.266,-22.949,-34.180,-42.969,0.000,0
1644802515.831,-61.035,-26.855,-28.320,-35.645,0.000,0
1644802515.833,-52.246,-24.902,-25.391,-25.391,0.000,0
1644802515.837,-66.895,-23.438,-31.738,-22.461,0.000,0
1644802515.841,-77.637,-27.344,-36.621,-30.273,0.000,0
1644802515.845,-62.988,-27.344,-37.598,-45.410,0.000,0
1644802515.849,-41.016,-19.531,-30.762,-45.898,0.000,0
1644802515.853,-50.293,-17.578,-29.785,-41.016,0.000,0
1644802515.857,-67.871,-26.367,-35.645,-32.715,0.000,0
1644802515.861,-78.613,-37.598,-43.457,-21.973,0.000,0
1644802515.865,-80.566,-37.598,-42.969,-36.133,0.000,0
1644802515.868,-70.312,-25.391,-37.109,-47.852,0.000,0
1644802515.872,-62.012,-28.809,-41.992,-48.828,0.000,0
1644802515.876,-69.336,-34.668,-38.574,-44.922,0.000,0
1644802515.878,-79.102,-32.227,-30.762,-39.551,0.000,0
1644802515.882,-80.566,-29.785,-31.738,-38.574,0.000,0
1644802515.886,-64.453,-26.367,-30.762,-37.109,0.000,0
1644802515.890,-51.758,-25.879,-32.227,-39.551,0.000,0
1644802515.894,-63.477,-34.668,-37.598,-49.805,0.000,0
1644802515.898,-80.078,-40.527,-39.062,-42.480,0.000,0
1644802515.902,-80.078,-37.598,-41.016,-41.504,0.000,0
1644802515.906,-53.223,-30.762,-42.969,-47.363,0.000,0
1644802515.909,-39.551,-25.879,-43.945,-46.875,0.000,0
1644802515.913,-48.828,-23.438,-41.016,-29.785,0.000,0
1644802515.917,-61.035,-23.438,-36.621,-23.438,0.000,0
1644802515.921,-59.082,-29.785,-38.574,-45.898,0.000,0
1644802515.923,-46.387,-25.879,-36.621,-40.039,0.000,0
1644802515.927,-29.785,-15.625,-31.250,-17.090,0.000,0
1644802515.931,-44.434,-19.043,-32.227,-19.043,0.000,0
1644802515.935,-64.453,-22.949,-38.574,-25.879,0.000,0
1644802515.939,-71.289,-26.367,-38.574,-33.691,0.000,0
1644802515.943,-70.801,-28.320,-38.574,-40.527,0.000,0
1644802515.947,-57.129,-29.785,-43.457,-35.156,0.000,0
1644802515.950,-63.965,-30.273,-45.410,-35.156,0.000,0
1644802515.954,-83.008,-32.227,-47.363,-26.367,0.000,0
1644802515.958,-90.332,-38.574,-47.852,-39.062,0.000,0
1644802515.962,-81.543,-41.504,-45.410,-44.434,0.000,0
1644802515.966,-64.941,-33.691,-40.039,-34.180,0.000,0
1644802515.967,-57.617,-28.809,-36.133,-39.551,0.000,0
1644802515.971,-63.477,-30.762,-35.645,-36.621,0.000,0
1644802515.975,-62.500,-29.785,-33.203,-40.527,0.000,0
1644802515.979,-62.012,-28.809,-36.133,-46.875,0.000,0
1644802515.983,-56.152,-25.879,-39.062,-36.133,0.000,0
1644802515.987,-48.828,-34.668,-37.109,-21.484,0.000,0
1644802515.991,-58.594,-38.574,-39.062,-17.578,0.000,0
1644802515.994,-67.871,-35.156,-43.457,-19.531,0.000,0
1644802515.998,-62.988,-35.156,-40.527,-23.438,0.000,0
1644802516.002,-43.457,-33.691,-36.133,-19.531,0.000,0
1644802516.006,-40.039,-33.203,-36.133,-16.113,0.000,0
1644802516.010,-63.477,-28.809,-37.109,-32.227,0.000,0
1644802516.011,-65.430,-26.855,-42.969,-44.434,0.000,0
1644802516.015,-59.082,-29.785,-44.922,-49.805,0.000,0
1644802516.019,-45.898,-35.156,-41.992,-41.016,0.000,0
1644802516.023,-39.062,-32.715,-35.645,-28.809,0.000,0
1644802516.027,-62.500,-27.832,-35.645,-24.902,0.000,0
1644802516.031,-66.895,-32.715,-41.504,-20.508,0.000,0
1644802516.035,-72.754,-40.039,-38.574,-38.574,0.000,0
1644802516.039,-72.266,-39.551,-33.203,-35.156,0.000,0
1644802516.042,-63.965,-35.645,-33.691,-20.996,0.000,0
1644802516.046,-65.918,-34.668,-38.086,-32.227,0.000,0
1644802516.050,-77.637,-39.062,-40.527,-50.293,0.000,0
1644802516.054,-76.172,-36.621,-35.645,-55.664,0.000,0
1644802516.056,-58.594,-30.273,-31.738,-39.062,0.000,0
1644802516.060,-49.805,-28.320,-35.156,-32.715,0.000,0
1644802516.064,-61.035,-28.809,-39.062,-39.062,0.000,0
1644802516.068,-80.078,-33.203,-41.504,-37.109,0.000,0
1644802516.072,-80.078,-32.227,-39.551,-33.691,0.000,0
1644802516.076,-62.012,-29.297,-35.156,-32.715,0.000,0
1644802516.080,-48.828,-31.250,-37.598,-27.832,0.000,0
1644802516.083,-59.082,-24.902,-40.039,-26.367,0.000,0
1644802516.087,-74.707,-23.926,-39.551,-28.809,0.000,0
1644802516.091,-74.219,-27.832,-41.016,-29.785,0.000,0
1644802516.095,-55.664,-24.902,-39.551,-36.621,0.000,0
1644802516.099,-49.805,-25.879,-37.109,-33.203,0.000,0
1644802516.101,-60.547,-31.250,-39.551,-20.508,0.000,0
1644802516.105,-68.359,-30.762,-41.016,-18.555,0.000,0
1644802516.109,-70.312,-31.250,-38.086,-31.738,0.000,0
1644802516.113,-55.176,-25.391,-33.691,-52.246,0.000,0
1644802516.117,-42.480,-20.996,-30.762,-41.992,0.000,0
1644802516.121,-39.551,-20.996,-29.297,-20.996,0.000,0
1644802516.125,-59.570,-26.367,-32.715,-16.602,0.000,0
1644802516.128,-77.148,-31.738,-37.598,-25.879,0.000,0
1644802516.132,-56.152,-31.738,-36.621,-25.879,0.000,0
1644802516.136,-39.551,-32.715,-35.645,-25.391,0.000,0
1644802516.140,-47.363,-32.227,-32.227,-30.762,0.000,0
1644802516.144,-60.547,-33.691,-36.621,-26.367,0.000,0
1644802516.146,-72.266,-32.227,-43.457,-28.320,0.000,0
1644802516.150,-67.383,-26.855,-40.527,-42.969,0.000,0
1644802516.154,-49.316,-26.367,-41.016,-39.062,0.000,0
1644802516.158,-43.457,-26.367,-36.621,-24.414,0.000,0
1644802516.162,-57.129,-27.832,-33.691,-33.203,0.000,0
1644802516.166,-78.613,-29.785,-36.621,-43.945,0.000,0
1644802516.169,-67.383,-29.297,-41.992,-54.199,0.000,0
1644802516.173,-42.480,-24.414,-46.875,-54.199,0.000,0
1644802516.177,-49.316,-27.832,-46.875,-39.551,0.000,0
1644802516.181,-68.848,-31.738,-45.410,-34.668,0.000,0
1644802516.185,-72.754,-27.344,-41.504,-26.855,0.000,0
1644802516.189,-57.617,-30.762,-37.109,-33.203,0.000,0
1644802516.192,-56.152,-28.809,-37.109,-55.664,0.000,0
1644802516.196,-58.594,-24.902,-37.109,-52.734,0.000,0
1644802516.200,-62.012,-25.879,-37.109,-43.945,0.000,0
1644802516.203,-73.730,-29.785,-39.551,-41.992,0.000,0
1644802516.207,-68.848,-30.273,-34.180,-35.156,0.000,0
1644802516.211,-54.688,-28.320,-26.855,-32.227,0.000,0
1644802516.215,-53.223,-28.809,-26.367,-29.297,0.000,0
1644802516.219,-58.594,-31.250,-28.809,-18.555,0.000,0
1644802516.223,-71.777,-32.227,-31.738,-19.043,0.000,0
1644802516.227,-78.125,-33.691,-29.785,-40.039,0.000,0
1644802516.231,-63.477,-31.738,-30.762,-43.457,0.000,0
1644802516.234,-64.453,-24.902,-27.832,-35.156,0.000,0
1644802516.237,-68.848,-30.762,-27.832,-28.809,0.000,0
1644802516.241,-79.590,-40.527,-29.785,-29.785,0.000,0
1644802516.244,-83.008,-38.086,-28.320,-39.551,0.000,0
1644802516.248,-67.383,-32.227,-34.668,-41.016,0.000,0
1644802516.252,-61.523,-27.832,-34.668,-32.715,0.000,0
1644802516.256,-63.965,-29.785,-32.715,-33.691,0.000,0
1644802516.260,-71.289,-38.086,-40.039,-32.715,0.000,0
1644802516.264,-84.961,-42.969,-44.922,-39.551,0.000,0
1644802516.268,-82.520,-38.574,-42.969,-54.688,0.000,0
1644802516.272,-66.895,-31.738,-39.551,-44.434,0.000,0
1644802516.275,-69.336,-33.203,-42.969,-32.227,0.000,0
1644802516.279,-75.195,-35.156,-43.457,-23.926,0.000,0
1644802516.282,-83.984,-33.203,-37.109,-33.203,0.000,0
1644802516.286,-81.543,-33.691,-36.621,-47.363,0.000,0
1644802516.289,-68.848,-35.645,-34.180,-42.480,0.000,0
1644802516.293,-69.336,-34.668,-34.180,-31.250,0.000,0
1644802516.297,-72.266,-37.109,-43.457,-28.809,0.000,0
1644802516.301,-72.754,-43.945,-47.852,-42.480,0.000,0
1644802516.305,-64.941,-45.898,-44.434,-48.340,0.000,0
1644802516.309,-57.129,-35.156,-36.621,-32.227,0.000,0
1644802516.313,-64.941,-28.320,-32.227,-28.809,0.000,0
1644802516.316,-78.613,-34.180,-37.598,-30.273,0.000,0
1644802516.320,-86.914,-36.133,-36.621,-20.508,0.000,0
1644802516.324,-80.078,-30.273,-33.691,-24.414,0.000,0
1644802516.327,-60.547,-24.902,-37.109,-40.527,0.000,0
1644802516.330,-52.734,-26.367,-37.598,-39.551,0.000,0
1644802516.334,-60.059,-27.344,-35.645,-33.691,0.000,0
1644802516.338,-64.453,-28.809,-38.086,-35.645,0.000,0
1644802516.342,-55.664,-25.391,-33.203,-36.621,0.000,0
1644802516.346,-48.340,-28.320,-27.832,-42.480,0.000,0
1644802516.350,-56.641,-37.109,-28.809,-31.250,0.000,0
1644802516.354,-75.684,-31.250,-24.902,-23.438,0.000,0
1644802516.357,-86.914,-29.785,-27.344,-34.180,0.000,0
1644802516.361,-74.707,-24.902,-29.785,-43.457,0.000,0
1644802516.365,-56.641,-21.973,-29.297,-49.805,0.000,0
1644802516.369,-57.129,-22.949,-30.273,-38.086,0.000,0
1644802516.372,-60.059,-20.996,-25.391,-29.297,0.000,0
1644802516.376,-58.594,-27.344,-27.832,-23.438,0.000,0
1644802516.380,-63.965,-29.297,-31.250,-35.645,0.000,0
1644802516.384,-65.430,-27.832,-27.832,-39.551,0.000,0
1644802516.388,-56.641,-29.785,-27.832,-26.367,0.000,0
1644802516.391,-51.270,-38.086,-31.250,-25.879,0.000,0
1644802516.395,-57.129,-36.621,-32.715,-26.855,0.000,0
1644802516.399,-72.266,-26.855,-33.203,-32.227,0.000,0
1644802516.403,-69.824,-21.484,-35.645,-36.133,0.000,0
1644802516.407,-62.988,-17.090,-29.785,-32.227,0.000,0
1644802516.411,-66.895,-17.090,-28.320,-32.715,0.000,0
1644802516.415,-79.590,-21.484,-34.668,-33.691,0.000,0
1644802516.418,-82.031,-28.320,-38.086,-37.109,0.000,0
1644802516.422,-58.105,-22.949,-34.180,-38.086,0.000,0
1644802516.426,-43.945,-15.625,-30.273,-37.598,0.000,0
1644802516.430,-53.223,-20.020,-40.527,-40.527,0.000,0
1644802516.434,-61.035,-28.809,-43.945,-30.762,0.000,0
1644802516.437,-65.430,-35.156,-41.504,-27.344,0.000,0
1644802516.441,-67.383,-29.297,-42.480,-46.387,0.000,0
1644802516.445,-58.105,-19.531,-34.180,-50.781,0.000,0
1644802516.449,-57.129,-17.090,-29.785,-34.668,0.000,0
1644802516.453,-68.848,-28.809,-38.086,-17.090,0.000,0
1644802516.457,-85.938,-38.574,-43.457,-24.902,0.000,0
1644802516.461,-79.590,-33.691,-43.945,-40.527,0.000,0
1644802516.464,-58.105,-25.879,-38.574,-32.715,0.000,0
1644802516.468,-61.523,-26.855,-40.039,-32.715,0.000,0
1644802516.471,-68.359,-28.320,-47.363,-32.715,0.000,0
1644802516.475,-76.172,-33.203,-40.527,-25.879,0.000,0
1644802516.479,-74.707,-35.645,-30.762,-30.273,0.000,0
1644802516.483,-52.734,-22.949,-35.645,-29.297,0.000,0
1644802516.487,-54.688,-17.578,-40.527,-26.367,0.000,0
1644802516.491,-74.707,-22.949,-38.086,-31.738,0.000,0
1644802516.495,-68.359,-27.344,-39.062,-27.344,0.000,0
1644802516.498,-56.641,-25.879,-40.039,-27.344,0.000,0
1644802516.502,-62.500,-30.762,-31.250,-38.574,0.000,0
1644802516.506,-67.383,-32.715,-33.203,-41.504,0.000,0
1644802516.510,-63.965,-31.250,-38.574,-34.180,0.000,0
1644802516.514,-73.242,-37.109,-36.133,-37.109,0.000,0
1644802516.517,-87.891,-35.645,-34.668,-44.434,0.000,0
1644802516.521,-75.195,-36.133,-36.621,-44.434,0.000,0
1644802516.525,-62.988,-37.598,-39.551,-43.945,0.000,0
1644802516.529,-62.500,-39.062,-41.992,-29.297,0.000,0
1644802516.533,-65.430,-36.621,-43.457,-23.438,0.000,0
1644802516.537,-71.289,-36.621,-45.898,-43.945,0.000,0
1644802516.541,-63.965,-32.715,-42.480,-54.199,0.000,0
1644802516.544,-54.688,-25.391,-36.133,-40.039,0.000,0
1644802516.548,-57.129,-28.809,-37.598,-37.109,0.000,0
1644802516.552,-69.336,-37.598,-40.039,-40.039,0.000,0
1644802516.555,-72.754,-37.109,-39.062,-25.879,0.000,0
1644802516.559,-63.965,-28.320,-35.156,-37.109,0.000,0
1644802516.563,-57.129,-26.855,-34.180,-47.363,0.000,0
1644802516.567,-54.688,-30.762,-40.527,-40.039,0.000,0
1644802516.571,-57.617,-32.227,-48.340,-38.086,0.000,0
1644802516.574,-67.871,-29.297,-42.480,-41.992,0.000,0
1644802516.578,-64.453,-29.785,-35.645,-45.898,0.000,0
1644802516.582,-52.734,-31.738,-36.133,-36.621,0.000,0
1644802516.586,-49.805,-26.367,-35.645,-26.367,0.000,0
1644802516.590,-53.711,-31.250,-40.039,-18.066,0.000,0
1644802516.594,-69.824,-32.227,-41.504,-20.996,0.000,0
1644802516.598,-62.500,-30.273,-35.156,-25.391,0.000,0
1644802516.601,-43.945,-33.691,-34.668,-22.461,0.000,0
1644802516.604,-50.781,-23.926,-31.738,-21.484,0.000,0
1644802516.608,-58.594,-24.414,-33.691,-11.230,0.000,0
1644802516.612,-74.219,-29.297,-39.062,-14.648,0.000,0
1644802516.616,-72.266,-25.391,-39.062,-26.367,0.000,0
1644802516.620,-46.875,-23.926,-40.039,-29.785,0.000,0
1644802516.624,-46.875,-26.367,-39.062,-29.297,0.000,0
1644802516.628,-58.105,-32.715,-42.969,-11.719,0.000,0
1644802516.631,-78.613,-33.691,-50.293,-19.531,0.000,1
1644802516.635,-70.312,-28.320,-43.457,-43.457,0.000,0
1644802516.639,-39.062,-27.344,-33.691,-38.086,0.000,0
1644802516.643,-44.434,-29.785,-32.227,-25.391,0.000,0
1644802516.646,-63.477,-30.762,-29.785,-28.320,0.000,0
1644802516.650,-75.195,-35.645,-36.133,-31.250,0.000,0
1644802516.654,-73.730,-39.062,-37.598,-32.227,0.000,0
1644802516.657,-62.012,-34.180,-30.273,-39.551,0.000,0
1644802516.661,-62.988,-30.762,-28.809,-39.062,0.000,0
1644802516.665,-70.801,-33.203,-33.203,-36.133,0.000,0
1644802516.669,-76.660,-34.180,-38.086,-38.574,0.000,0
1644802516.673,-73.730,-34.180,-35.645,-37.109,0.000,0
1644802516.677,-61.035,-26.855,-32.715,-37.109,0.000,0
1644802516.681,-58.594,-21.973,-34.180,-34.180,0.000,0
1644802516.684,-68.359,-32.715,-41.016,-31.738,0.000,0
1644802516.688,-84.961,-41.016,-44.922,-38.086,0.000,0
1644802516.692,-79.102,-36.621,-43.457,-49.316,0.000,0
1644802516.696,-63.965,-34.668,-41.992,-52.246,0.000,0
1644802516.700,-70.312,-40.039,-44.434,-44.922,0.000,0
1644802516.703,-79.102,-42.480,-47.852,-41.992,0.000,0
1644802516.707,-87.402,-43.457,-47.852,-42.480,0.000,0
1644802516.711,-86.426,-42.969,-42.480,-34.668,0.000,0
1644802516.715,-66.406,-41.016,-41.504,-35.645,0.000,0
1644802516.719,-53.223,-37.598,-40.039,-43.945,0.000,0
1644802516.723,-62.500,-32.715,-39.062,-40.527,0.000,0
1644802516.727,-73.242,-30.762,-40.527,-33.203,0.000,0
1644802516.730,-77.148,-32.227,-36.133,-39.551,0.000,0
1644802516.734,-73.242,-28.809,-35.645,-51.758,0.000,0
1644802516.738,-68.359,-26.855,-38.574,-41.504,0.000,0
1644802516.742,-66.406,-30.273,-35.156,-27.832,0.000,0
1644802516.745,-73.730,-35.156,-36.621,-29.785,0.000,0
1644802516.749,-81.543,-38.086,-39.551,-42.480,0.000,0
1644802516.753,-73.730,-31.738,-40.527,-42.480,0.000,0
1644802516.757,-58.594,-27.832,-40.527,-29.785,0.000,0
1644802516.761,-57.617,-25.391,-41.992,-34.180,0.000,0
1644802516.765,-65.430,-23.926,-42.969,-32.715,0.000,0
1644802516.769,-84.473,-27.832,-43.457,-37.598,0.000,0
1644802516.772,-82.520,-34.180,-38.574,-48.828,0.000,0
1644802516.776,-73.730,-34.180,-39.062,-50.781,0.000,0
1644802516.780,-77.148,-29.297,-46.387,-50.781,0.000,0
1644802516.784,-73.242,-29.785,-45.898,-34.668,0.000,0
1644802516.787,-78.613,-35.156,-41.992,-34.180,0.000,0
1644802516.791,-77.637,-38.086,-38.574,-34.668,0.000,0
1644802516.795,-64.941,-33.203,-36.133,-23.438,0.000,0
1644802516.799,-63.477,-29.785,-40.527,-27.344,0.000,0
1644802516.803,-85.449,-31.250,-43.457,-30.762,0.000,0
1644802516.807,-98.145,-27.832,-42.969,-28.809,0.000,0
1644802516.811,-73.730,-26.855,-40.527,-37.598,0.000,0
1644802516.814,-63.965,-28.809,-34.180,-37.109,0.000,0
1644802516.818,-62.988,-30.762,-34.180,-30.273,0.000,0
1644802516.822,-68.848,-30.273,-36.133,-31.250,0.000,0
1644802516.826,-83.008,-35.156,-35.156,-22.461,0.000,0
1644802516.830,-74.707,-41.992,-35.156,-32.715,0.000,0
1644802516.834,-64.941,-37.109,-37.109,-36.133,0.000,0
1644802516.838,-64.453,-33.691,-40.527,-29.785,0.000,0
1644802516.842,-63.477,-34.668,-43.457,-28.320,0.000,0
1644802516.845,-77.148,-33.691,-42.480,-19.531,0.000,0
1644802516.849,-93.262,-38.086,-41.016,-27.344,0.000,0
1644802516.853,-84.473,-36.133,-38.086,-32.715,0.000,0
1644802516.857,-71.777,-29.785,-39.062,-31.738,0.000,0
1644802516.861,-68.359,-33.203,-40.527,-17.090,0.000,0
1644802516.865,-77.148,-38.086,-37.598,-6.836,0.000,0
1644802516.869,-82.031,-36.133,-39.062,-29.297,0.000,0
1644802516.872,-62.500,-32.227,-34.668,-40.039,0.000,0
1644802516.876,-51.758,-28.320,-30.762,-25.879,0.000,0
1644802516.880,-53.711,-22.461,-31.250,-19.531,0.000,0
1644802516.883,-68.359,-28.809,-35.156,-24.902,0.000,0
1644802516.887,-78.125,-37.598,-40.039,-29.785,0.000,0
1644802516.891,-71.777,-36.133,-38.086,-42.969,0.000,0
1644802516.895,-58.105,-37.109,-38.086,-44.434,0.000,0
1644802516.899,-47.852,-39.062,-38.086,-46.387,0.000,0
1644802516.903,-66.895,-36.621,-39.062,-49.805,0.000,0
1644802516.907,-92.285,-39.062,-37.598,-53.711,0.000,0
1644802516.910,-65.430,-34.668,-32.715,-45.898,0.000,0
1644802516.914,-41.992,-32.227,-31.738,-21.973,0.000,0
1644802516.918,-42.969,-37.109,-32.715,-16.602,0.000,0
1644802516.921,-50.293,-30.762,-33.203,-12.695,0.000,0
1644802516.925,-65.918,-22.949,-28.809,-22.461,0.000,0
1644802516.929,-62.988,-20.996,-26.855,-37.598,0.000,0
1644802516.933,-56.152,-22.949,-25.879,-17.578,0.000,0
1644802516.937,-52.734,-21.973,-27.344,-8.789,0.000,0
1644802516.941,-54.199,-24.414,-33.691,-24.902,0.000,0
1644802516.945,-69.336,-36.133,-41.016,-32.715,0.000,0
1644802516.948,-60.059,-38.574,-40.039,-20.508,0.000,0
1644802516.952,-36.133,-28.809,-36.621,-16.602,0.000,0
1644802516.956,-50.293,-23.926,-38.086,-43.457,0.000,0
1644802516.960,-73.242,-28.809,-41.992,-42.969,0.000,0
1644802516.964,-67.871,-34.180,-40.039,-30.762,0.000,0
1644802516.968,-48.828,-27.832,-32.227,-33.203,0.000,0
1644802516.972,-27.344,-21.973,-31.250,-34.180,0.000,0
1644802516.975,-26.855,-24.902,-34.668,-30.273,0.000,0
1644802516.979,-45.898,-31.738,-32.715,-24.902,0.000,0
1644802516.983,-57.617,-36.133,-29.785,-22.949,0.000,0
1644802516.987,-55.664,-37.109,-30.273,-27.832,0.000,0
1644802516.991,-32.715,-35.645,-33.203,-22.949,0.000,0
1644802516.995,-27.832,-30.273,-33.691,-23.438,0.000,0
1644802516.999,-50.781,-26.855,-29.785,-19.531,0.000,0
1644802517.002,-65.430,-27.344,-24.902,-11.719,0.000,0
1644802517.006,-56.152,-30.762,-22.461,-18.066,0.000,0
1644802517.010,-41.504,-30.762,-25.879,-28.320,0.000,0
1644802517.013,-35.645,-26.855,-31.738,-25.879,0.000,0
1644802517.017,-44.434,-24.414,-36.621,-25.391,0.000,0
1644802517.021,-59.082,-31.738,-38.574,-25.879,0.000,0
1644802517.025,-59.570,-38.574,-36.133,-31.738,0.000,0
1644802517.029,-48.340,-26.367,-33.203,-38.574,0.000,0
1644802517.033,-38.086,-20.996,-34.668,-32.715,0.000,0
1644802517.037,-34.180,-27.832,-31.738,-30.762,0.000,0
1644802517.040,-59.570,-30.762,-29.785,-32.715,0.000,0
1644802517.044,-82.520,-34.180,-29.297,-42.969,0.000,0
1644802517.048,-61.523,-34.180,-28.320,-41.504,0.000,0
1644802517.052,-44.922,-35.645,-35.156,-27.344,0.000,0
1644802517.056,-52.734,-35.156,-41.016,-27.832,0.000,0
1644802517.060,-67.871,-33.691,-38.574,-32.715,0.000,0
1644802517.063,-78.613,-41.016,-40.039,-36.621,0.000,0
1644802517.067,-74.707,-38.086,-40.039,-49.805,0.000,0
1644802517.071,-56.152,-30.273,-37.598,-50.781,0.000,0
1644802517.075,-48.340,-28.320,-36.621,-41.016,0.000,0
1644802517.079,-68.848,-33.203,-35.645,-42.480,0.000,0
1644802517.083,-81.055,-40.039,-39.551,-51.270,0.000,0
1644802517.087,-60.059,-33.691,-39.062,-51.270,0.000,0
1644802517.090,-41.992,-25.391,-36.621,-41.992,0.000,0
1644802517.094,-46.875,-28.320,-34.180,-39.062,0.000,0
1644802517.098,-65.918,-32.227,-30.762,-33.691,0.000,0
1644802517.102,-80.566,-34.668,-33.203,-41.504,0.000,0
1644802517.106,-66.895,-32.715,-31.738,-56.641,0.000,0
1644802517.110,-47.363,-28.809,-30.273,-51.270,0.000,0
1644802517.114,-47.363,-24.414,-28.809,-33.691,0.000,0
1644802517.118,-58.594,-24.902,-30.762,-20.996,0.000,0
1644802517.122,-75.684,-34.180,-41.992,-31.250,0.000,0
1644802517.126,-66.406,-36.621,-40.039,-44.434,0.000,0
1644802517.129,-54.688,-28.809,-31.250,-33.203,0.000,0
1644802517.133,-49.805,-26.855,-36.621,-20.996,0.000,0
1644802517.137,-60.059,-32.715,-45.898,-20.996,0.000,0
1644802517.141,-68.359,-37.598,-42.969,-6.836,0.000,0
1644802517.145,-61.523,-34.668,-38.574,-11.719,0.000,0
1644802517.149,-59.082,-26.855,-37.109,-20.508,0.000,0
1644802517.153,-48.340,-26.855,-33.691,-9.766,0.000,0
1644802517.157,-51.270,-32.715,-39.062,-17.090,0.000,0
1644802517.161,-59.082,-33.203,-47.363,-30.273,0.000,0
1644802517.164,-64.453,-34.180,-49.316,-48.828,0.000,0
1644802517.168,-55.176,-33.691,-49.805,-41.504,0.000,0
1644802517.172,-47.363,-32.715,-47.852,-32.715,0.000,0
1644802517.176,-69.824,-40.039,-49.316,-44.922,0.000,0
1644802517.180,-83.984,-36.621,-48.340,-37.109,0.000,0
1644802517.184,-79.590,-29.785,-43.457,-37.598,0.000,0
1644802517.188,-63.965,-33.691,-47.363,-49.805,0.000,0
1644802517.191,-45.898,-24.902,-46.387,-38.574,0.000,0
1644802517.195,-63.477,-19.043,-36.621,-34.668,0.000,0
1644802517.199,-80.566,-28.809,-33.203,-34.180,0.000,0
1644802517.203,-77.637,-32.227,-34.668,-27.832,0.000,0
1644802517.207,-68.359,-30.762,-34.668,-43.457,0.000,0
1644802517.210,-67.871,-29.297,-33.691,-49.316,0.000,0
1644802517.214,-87.402,-35.645,-30.762,-48.828,0.000,0
1644802517.218,-98.633,-43.457,-33.203,-44.922,0.000,0
1644802517.222,-103.027,-40.039,-34.668,-54.688,0.000,0
1644802517.226,-97.168,-31.250,-27.832,-66.406,0.000,0
1644802517.230,-84.473,-29.297,-28.320,-51.758,0.000,0
1644802517.234,-84.473,-27.832,-26.367,-44.434,0.000,0
1644802517.237,-98.633,-27.832,-31.250,-58.594,0.000,0
1644802517.241,-104.004,-35.645,-36.133,-60.547,0.000,0
1644802517.245,-97.656,-41.504,-29.297,-57.129,0.000,0
1644802517.249,-85.449,-37.598,-24.902,-55.176,0.000,0
1644802517.253,-81.543,-31.250,-20.996,-60.059,0.000,0
1644802517.256,-101.562,-36.621,-25.391,-67.383,0.000,0
1644802517.260,-117.188,-40.039,-31.738,-66.406,0.000,0
1644802517.264,-95.215,-37.598,-25.391,-71.777,0.000,0
1644802517.268,-86.426,-38.086,-21.484,-73.730,0.000,0
1644802517.272,-96.191,-39.062,-27.832,-72.754,0.000,0
1644802517.276,-101.562,-37.598,-30.273,-66.895,0.000,0
1644802517.280,-111.816,-33.691,-23.438,-56.641,0.000,0
1644802517.283,-109.863,-30.762,-21.484,-66.406,0.000,0
1644802517.287,-98.145,-31.738,-27.832,-70.312,0.000,0
1644802517.291,-77.148,-25.879,-27.344,-53.711,0.000,0
1644802517.295,-78.125,-23.926,-22.949,-54.688,0.000,0
1644802517.299,-104.492,-36.133,-29.785,-58.594,0.000,0
1644802517.302,-100.586,-36.621,-28.809,-53.711,0.000,0
1644802517.306,-79.590,-34.668,-28.320,-45.898,0.000,0
1644802517.310,-67.383,-34.668,-32.715,-35.645,0.000,0
1644802517.314,-78.125,-30.273,-34.180,-39.551,0.000,0
1644802517.318,-94.238,-36.621,-36.133,-46.387,0.000,0
1644802517.322,-89.355,-38.574,-39.062,-50.293,0.000,0
1644802517.326,-73.242,-32.227,-39.551,-61.035,0.000,0
1644802517.329,-69.824,-30.762,-37.109,-51.758,0.000,0
1644802517.333,-76.172,-32.227,-34.180,-34.180,0.000,0
1644802517.337,-85.938,-38.574,-33.203,-37.109,0.000,0
1644802517.341,-76.660,-37.109,-39.062,-47.363,0.000,0
1644802517.344,-55.664,-32.715,-42.969,-41.016,0.000,0
1644802517.348,-46.875,-33.203,-39.062,-30.762,0.000,0
1644802517.352,-53.223,-36.133,-33.691,-31.250,0.000,0
1644802517.356,-67.383,-37.109,-38.086,-32.227,0.000,0
1644802517.360,-72.754,-39.062,-40.527,-37.598,0.000,0
1644802517.364,-59.570,-43.457,-36.621,-35.156,0.000,0
1644802517.368,-54.688,-39.062,-37.598,-35.645,0.000,1
1644802517.371,-62.012,-31.250,-39.062,-27.344,0.000,0
1644802517.375,-72.754,-34.180,-39.062,-19.531,0.000,0
1644802517.379,-80.566,-39.551,-42.480,-33.203,0.000,0
1644802517.383,-71.777,-36.133,-41.016,-37.598,0.000,0
1644802517.387,-50.781,-33.691,-34.668,-22.949,0.000,0
1644802517.391,-43.457,-32.227,-26.855,-13.672,0.000,0
1644802517.395,-53.711,-29.297,-25.879,-17.090,0.000,0
1644802517.399,-65.918,-30.762,-32.715,-28.320,0.000,0
1644802517.402,-62.500,-29.297,-34.180,-27.832,0.000,0
1644802517.406,-41.504,-26.367,-27.832,-19.531,0.000,0
1644802517.410,-35.645,-26.367,-23.926,-10.742,0.000,0
1644802517.414,-46.875,-23.438,-31.250,-10.254,0.000,0
1644802517.418,-58.594,-26.855,-41.504,-20.996,0.000,0
1644802517.422,-50.293,-29.785,-37.598,-17.578,0.000,0
1644802517.426,-28.809,-21.484,-29.785,-3.906,0.000,0
1644802517.429,-32.715,-18.555,-31.250,-6.836,0.000,0
1644802517.433,-55.664,-26.367,-30.762,-9.766,0.000,0
1644802517.437,-62.988,-33.203,-32.715,-21.973,0.000,0
1644802517.441,-47.363,-30.273,-31.738,-34.180,0.000,0
1644802517.444,-34.668,-22.949,-20.508,-28.320,0.000,0
1644802517.448,-30.762,-21.484,-25.879,-18.066,0.000,0
1644802517.452,-46.875,-26.855,-33.691,-6.348,0.000,0
1644802517.456,-63.477,-33.691,-34.180,-18.555,0.000,0
1644802517.460,-65.918,-32.227,-34.668,-34.668,0.000,0
1644802517.464,-61.035,-30.762,-35.645,-29.785,0.000,0
1644802517.468,-52.734,-31.738,-36.133,-18.066,0.000,0
1644802517.471,-62.012,-31.738,-34.668,-24.414,0.000,0
1644802517.475,-66.895,-34.668,-41.016,-40.039,0.000,0
1644802517.479,-65.918,-34.668,-44.434,-40.527,0.000,0
1644802517.483,-56.641,-27.344,-37.109,-37.109,0.000,0
1644802517.486,-41.504,-20.020,-36.621,-30.273,0.000,0
1644802517.490,-51.758,-23.926,-41.016,-9.277,0.000,0
1644802517.494,-62.500,-38.086,-42.480,-11.230,0.000,0
1644802517.498,-63.477,-39.062,-45.410,-37.109,0.000,0
1644802517.502,-69.336,-32.227,-45.898,-46.387,0.000,0
1644802517.506,-60.547,-29.785,-44.434,-37.109,0.000,0
1644802517.509,-52.246,-31.738,-36.133,-21.484,0.000,0
1644802517.513,-65.918,-31.738,-31.738,-26.855,0.000,0
1644802517.517,-67.383,-24.414,-36.133,-43.457,0.000,0
1644802517.521,-51.270,-20.508,-38.086,-39.551,0.000,0
1644802517.525,-38.086,-26.367,-41.504,-29.785,0.000,0
1644802517.529,-44.922,-31.250,-44.434,-28.809,0.000,0
1644802517.533,-54.199,-29.785,-46.387,-25.879,0.000,0
1644802517.536,-61.035,-32.227,-43.457,-39.062,0.000,0
1644802517.540,-63.477,-38.574,-40.039,-43.945,0.000,0
1644802517.544,-41.504,-31.250,-34.668,-26.855,0.000,0
1644802517.548,-39.062,-22.461,-30.762,-18.555,0.000,0
1644802517.552,-48.828,-27.832,-30.762,-15.625,0.000,0
1644802517.556,-58.594,-36.133,-29.785,-22.949,0.000,0
1644802517.560,-50.781,-30.762,-27.832,-29.297,0.000,0
1644802517.563,-45.410,-22.461,-30.762,-32.227,0.000,0
1644802517.567,-42.480,-25.879,-37.598,-20.508,0.000,0
1644802517.571,-44.434,-28.320,-41.504,-7.812,0.000,0
1644802517.575,-66.895,-22.461,-41.016,-29.785,0.000,0
1644802517.579,-57.617,-23.926,-35.645,-38.086,0.000,0
1644802517.583,-41.992,-33.203,-33.691,-25.391,0.000,0
1644802517.587,-43.945,-30.762,-26.855,-20.996,0.000,0
1644802517.590,-60.547,-24.902,-30.273,-33.203,0.000,0
1644802517.594,-77.148,-32.715,-38.574,-44.434,0.000,0
1644802517.598,-61.523,-30.762,-33.203,-30.762,0.000,0
1644802517.602,-40.527,-23.926,-28.320,-22.461,0.000,0
1644802517.606,-47.363,-23.438,-26.855,-22.461,0.000,0
1644802517.610,-65.918,-26.367,-28.809,-20.020,0.000,0
1644802517.614,-81.543,-30.273,-35.156,-29.297,0.000,0
1644802517.617,-75.195,-30.273,-37.109,-43.457,0.000,0
1644802517.621,-57.617,-26.855,-39.551,-41.504,0.000,0
1644802517.625,-44.434,-22.949,-43.457,-28.809,0.000,0
1644802517.629,-53.223,-26.367,-41.016,-26.855,0.000,0
1644802517.633,-69.824,-26.367,-42.480,-26.367,0.000,0
1644802517.637,-68.359,-21.973,-46.387,-37.598,0.000,0
1644802517.641,-60.059,-23.438,-40.527,-35.645,0.000,0
1644802517.644,-44.434,-23.926,-36.133,-15.137,0.000,0
1644802517.648,-54.199,-23.926,-36.621,-15.137,0.000,0
1644802517.652,-83.984,-24.902,-39.551,-27.832,0.000,0
1644802517.656,-73.242,-28.809,-42.969,-37.109,0.000,0
1644802517.660,-44.434,-30.762,-42.480,-43.457,0.000,0
1644802517.664,-45.410,-29.297,-39.062,-28.320,0.000,0
1644802517.668,-57.129,-24.902,-38.574,-24.414,0.000,0
1644802517.672,-59.570,-24.902,-35.645,-24.902,0.000,0
1644802517.676,-67.383,-28.809,-32.227,-39.062,0.000,0
1644802517.679,-54.688,-27.832,-36.133,-45.898,0.000,0
1644802517.683,-32.227,-18.066,-41.016,-30.273,0.000,0
1644802517.687,-32.227,-23.926,-38.574,-19.043,0.000,0
1644802517.691,-63.477,-37.109,-34.668,-20.996,0.000,0
1644802517.695,-82.520,-37.109,-34.668,-40.527,0.000,0
1644802517.699,-63.477,-35.645,-31.738,-40.039,0.000,0
1644802517.703,-56.152,-34.668,-27.832,-33.203,0.000,0
1644802517.706,-68.359,-34.180,-28.320,-26.367,0.000,0
1644802517.710,-81.543,-34.668,-28.809,-23.926,0.000,0
1644802517.714,-82.031,-41.016,-34.668,-36.621,0.000,0
1644802517.718,-69.336,-42.969,-32.715,-43.945,0.000,0
1644802517.722,-58.105,-42.480,-25.391,-40.039,0.000,0
1644802517.726,-59.082,-47.363,-23.926,-36.133,0.000,0
1644802517.729,-78.125,-50.293,-21.484,-41.016,0.000,0
1644802517.733,-71.289,-54.199,-22.461,-36.621,0.000,0
1644802517.737,-59.570,-52.246,-22.949,-40.527,0.000,0
1644802517.741,-59.570,-42.969,-16.602,-39.062,0.000,0
1644802517.745,-54.199,-42.969,-20.020,-20.508,0.000,0
1644802517.749,-67.871,-46.875,-28.809,-15.137,0.000,0
1644802517.752,-97.168,-47.363,-34.180,-37.109,0.000,0
1644802517.756,-91.309,-38.574,-34.668,-48.340,0.000,0
1644802517.760,-61.035,-35.156,-28.809,-43.945,0.000,0
1644802517.764,-52.734,-31.738,-28.320,-30.762,0.000,0
1644802517.768,-66.406,-26.855,-26.367,-13.184,0.000,0
1644802517.772,-72.266,-34.180,-34.180,-22.949,0.000,0
1644802517.775,-57.129,-38.574,-35.156,-28.320,0.000,0
1644802517.779,-50.781,-36.133,-26.855,-28.809,0.000,0
1644802517.783,-54.688,-28.320,-29.785,-28.320,0.000,0
1644802517.787,-61.035,-28.809,-33.691,-22.461,0.000,0
1644802517.791,-69.336,-35.156,-28.320,-23.926,0.000,0
1644802517.795,-70.801,-34.180,-29.297,-26.367,0.000,0
1644802517.798,-62.500,-27.832,-34.668,-34.180,0.000,0
1644802517.802,-41.504,-28.320,-32.227,-37.109,0.000,0
1644802517.806,-51.758,-34.180,-38.574,-48.340,0.000,0
1644802517.810,-79.590,-38.574,-45.410,-45.898,0.000,0
1644802517.814,-72.754,-42.969,-44.434,-44.922,0.000,0
1644802517.818,-57.129,-39.062,-41.992,-40.527,0.000,0
1644802517.822,-43.945,-36.133,-35.645,-15.625,0.000,0
1644802517.825,-46.875,-36.133,-35.645,-14.648,0.000,0
1644802517.829,-72.266,-33.203,-36.133,-21.484,0.000,0
1644802517.833,-73.730,-33.203,-35.645,-18.555,0.000,0
1644802517.837,-60.547,-33.691,-32.227,-18.555,0.000,0
1644802517.841,-61.035,-30.762,-31.250,-15.137,0.000,0
1644802517.845,-60.059,-29.785,-35.156,-11.230,0.000,0
1644802517.849,-70.801,-33.691,-37.598,-17.578,0.000,0
1644802517.853,-80.078,-40.039,-36.133,-35.645,0.000,0
1644802517.856,-69.336,-37.598,-39.062,-49.805,0.000,0
1644802517.860,-66.406,-31.250,-38.574,-42.969,0.000,0
1644802517.864,-61.523,-29.785,-32.227,-28.320,0.000,0
1644802517.868,-67.871,-31.250,-32.227,-17.090,0.000,0
1644802517.872,-68.848,-27.832,-32.715,-22.461,0.000,0
1644802517.876,-56.152,-21.973,-30.762,-20.020,0.000,0
1644802517.880,-32.227,-25.391,-27.344,-12.207,0.000,0
1644802517.883,-26.367,-30.273,-29.297,-26.367,0.000,0
1644802517.887,-59.082,-26.855,-34.668,-37.109,0.000,0
1644802517.892,-72.754,-31.250,-37.598,-36.133,0.000,0
1644802517.896,-62.012,-31.250,-35.156,-35.645,0.000,0
1644802517.899,-52.246,-28.320,-40.039,-22.949,0.000,0
1644802517.903,-49.805,-29.297,-41.992,-15.137,0.000,0
1644802517.907,-56.641,-36.133,-35.645,-23.926,0.000,0
1644802517.911,-73.242,-44.434,-39.551,-24.902,0.000,0
1644802517.915,-70.312,-42.969,-41.504,-41.016,0.000,0
1644802517.919,-46.875,-33.203,-34.668,-43.457,0.000,0
1644802517.923,-41.992,-32.227,-30.273,-20.508,0.000,0
1644802517.926,-56.641,-41.992,-33.203,-17.578,0.000,0
1644802517.930,-76.660,-39.551,-40.527,-27.832,0.000,0
1644802517.934,-71.289,-32.715,-37.109,-38.086,0.000,0
1644802517.938,-46.875,-30.762,-29.297,-38.574,0.000,0
1644802517.942,-39.062,-27.832,-31.250,-30.273,0.000,0
1644802517.946,-48.828,-22.949,-28.320,-22.949,0.000,0
1644802517.950,-66.895,-25.391,-33.691,-21.484,0.000,0
1644802517.954,-61.523,-28.809,-38.574,-27.344,0.000,0
1644802517.957,-45.410,-24.902,-34.668,-21.973,0.000,0
1644802517.961,-43.945,-18.555,-32.227,-13.672,0.000,0
1644802517.965,-55.176,-20.508,-28.809,-21.973,0.000,0
1644802517.969,-67.871,-28.809,-33.691,-20.996,0.000,0
1644802517.973,-60.547,-30.273,-37.109,-27.832,0.000,0
1644802517.977,-46.875,-27.832,-35.156,-43.457,0.000,0
1644802517.980,-43.457,-23.438,-36.621,-39.062,0.000,0
1644802517.985,-52.246,-34.180,-41.504,-28.320,0.000,0
1644802517.989,-62.500,-37.598,-39.062,-26.855,0.000,0
1644802517.993,-60.547,-25.879,-34.668,-38.574,0.000,0
1644802517.996,-53.223,-27.832,-35.156,-46.387,0.000,0
1644802518.000,-37.109,-31.250,-31.250,-39.062,0.000,0
1644802518.004,-33.691,-31.250,-35.645,-28.320,0.000,0
1644802518.008,-54.688,-29.785,-42.969,-28.320,0.000,0
1644802518.012,-55.664,-26.855,-42.480,-38.574,0.000,0
1644802518.016,-39.551,-25.879,-41.016,-34.668,0.000,0
1644802518.020,-42.969,-20.020,-34.668,-20.020,0.000,0
1644802518.023,-50.781,-18.066,-27.832,-20.020,0.000,0
1644802518.027,-62.988,-30.273,-29.297,-31.738,0.000,0
1644802518.032,-64.453,-34.668,-32.227,-37.598,0.000,0
1644802518.035,-50.293,-27.344,-31.250,-36.621,0.000,0
1644802518.039,-57.617,-29.785,-37.109,-35.156,0.000,0
1644802518.043,-60.059,-33.203,-44.434,-29.297,0.000,0
1644802518.047,-60.059,-32.715,-43.945,-27.832,0.000,0
1644802518.051,-65.918,-36.621,-42.969,-31.738,0.000,0
1644802518.055,-53.223,-34.668,-38.574,-38.574,0.000,0
1644802518.058,-45.898,-29.297,-36.133,-25.391,0.000,0
1644802518.062,-50.781,-28.809,-41.992,-28.320,0.000,0
1644802518.066,-67.383,-31.250,-41.992,-39.062,0.000,0
1644802518.070,-69.824,-31.738,-39.062,-37.109,0.000,0
1644802518.074,-56.641,-32.227,-36.133,-34.180,0.000,0
1644802518.078,-36.621,-31.250,-35.156,-30.762,0.000,0
1644802518.082,-39.551,-28.809,-40.039,-43.457,0.000,0
1644802518.085,-56.152,-30.762,-37.109,-34.180,0.000,0
1644802518.089,-69.336,-32.715,-33.691,-22.949,0.000,0
1644802518.093,-67.871,-31.738,-40.039,-36.133,0.000,0
1644802518.097,-44.434,-27.344,-45.410,-43.457,0.000,0
1644802518.101,-40.039,-26.855,-41.992,-26.367,0.000,0
1644802518.105,-58.105,-26.367,-37.598,-17.578,0.000,0
1644802518.109,-58.105,-32.227,-39.551,-28.809,0.000,0
1644802518.112,-57.617,-35.156,-40.527,-41.504,0.000,0
1644802518.116,-56.641,-34.180,-42.969,-45.898,0.000,0
1644802518.120,-39.551,-31.738,-42.480,-32.715,0.000,0
1644802518.124,-46.875,-26.855,-45.410,-37.109,0.000,0
1644802518.128,-68.359,-29.785,-51.758,-47.363,0.000,0
1644802518.132,-69.336,-32.715,-48.340,-41.992,0.000,0
1644802518.136,-48.828,-24.414,-40.039,-33.691,0.000,0
1644802518.139,-41.016,-18.066,-38.086,-39.062,0.000,0
1644802518.143,-57.617,-22.949,-39.551,-42.480,0.000,0
1644802518.147,-67.871,-28.809,-40.039,-34.668,0.000,0
1644802518.151,-62.012,-30.273,-38.086,-28.809,0.000,0
1644802518.155,-51.758,-27.344,-38.574,-40.039,0.000,0
1644802518.159,-47.363,-22.949,-45.410,-44.922,0.000,0
1644802518.163,-52.734,-20.996,-46.875,-36.621,0.000,0
1644802518.166,-62.988,-21.973,-43.945,-32.715,0.000,0
1644802518.171,-63.477,-23.926,-40.039,-29.297,0.000,2
1644802518.174,-54.688,-26.367,-44.434,-35.645,0.000,0
1644802518.178,-50.781,-21.973,-46.875,-35.156,0.000,0
1644802518.182,-55.176,-21.973,-42.969,-29.297,0.000,0
1644802518.186,-68.359,-26.855,-36.133,-25.391,0.000,0
1644802518.190,-70.312,-28.320,-34.668,-26.855,0.000,0
1644802518.194,-59.570,-29.297,-36.133,-23.926,0.000,0
1644802518.198,-45.410,-25.391,-33.203,-14.160,0.000,0
1644802518.201,-48.828,-18.066,-35.156,-27.344,0.000,0
1644802518.205,-61.523,-21.484,-39.551,-30.273,0.000,0
1644802518.209,-58.105,-23.926,-32.715,-28.320,0.000,0
1644802518.213,-38.574,-22.949,-30.273,-37.109,0.000,0
1644802518.217,-32.715,-19.531,-37.109,-32.227,0.000,0
1644802518.221,-43.945,-19.043,-40.039,-22.949,0.000,0
1644802518.225,-56.641,-20.508,-40.527,-18.066,0.000,0
1644802518.229,-69.336,-24.902,-42.480,-31.250,0.000,0
1644802518.233,-59.570,-26.855,-43.457,-41.992,0.000,0
1644802518.236,-47.852,-25.879,-36.621,-20.996,0.000,0
1644802518.240,-53.711,-24.414,-32.227,-17.578,0.000,0
1644802518.244,-60.547,-22.949,-36.133,-32.715,0.000,0
1644802518.248,-62.500,-30.273,-45.898,-42.480,0.000,0
1644802518.252,-49.316,-30.273,-50.781,-38.574,0.000,0
1644802518.256,-42.480,-22.949,-47.363,-34.180,0.000,0
1644802518.260,-51.758,-17.090,-41.504,-41.992,0.000,0
1644802518.264,-55.664,-20.020,-40.039,-40.039,0.000,0
1644802518.268,-60.059,-20.996,-41.016,-40.039,0.000,0
1644802518.271,-46.875,-19.531,-34.668,-41.992,0.000,0
1644802518.275,-47.852,-18.555,-35.645,-41.992,0.000,0
1644802518.279,-55.664,-18.555,-40.039,-30.273,0.000,0
1644802518.283,-53.223,-21.973,-39.551,-18.555,0.000,0
1644802518.287,-64.941,-26.855,-45.410,-28.320,0.000,0
1644802518.291,-62.012,-27.344,-43.945,-30.273,0.000,0
1644802518.295,-40.527,-24.414,-35.645,-24.414,0.000,0
1644802518.298,-31.738,-24.902,-35.645,-14.160,0.000,0
1644802518.302,-57.129,-25.391,-36.621,-21.973,0.000,0
1644802518.306,-74.707,-28.809,-42.480,-35.156,0.000,0
1644802518.311,-70.801,-30.762,-48.828,-39.551,0.000,0
1644802518.314,-60.059,-26.855,-43.945,-35.645,0.000,0
1644802518.318,-49.316,-23.438,-39.062,-28.320,0.000,0
1644802518.322,-51.270,-23.438,-39.551,-25.879,0.000,0
1644802518.326,-76.172,-29.297,-41.504,-24.902,0.000,0
1644802518.330,-76.660,-35.156,-43.457,-32.227,0.000,0
1644802518.334,-57.617,-30.762,-37.109,-37.598,0.000,0
1644802518.338,-62.012,-26.855,-38.086,-33.203,0.000,0
1644802518.341,-63.477,-26.855,-42.480,-28.320,0.000,0
1644802518.345,-68.848,-31.250,-36.133,-25.879,0.000,0
1644802518.349,-70.801,-23.926,-34.668,-35.645,0.000,0
1644802518.353,-60.547,-17.578,-32.227,-35.156,0.000,0
1644802518.357,-66.406,-26.367,-32.227,-20.020,0.000,0
1644802518.361,-74.219,-28.809,-35.156,-15.625,0.000,0
1644802518.365,-77.637,-29.297,-35.156,-18.555,0.000,0
1644802518.369,-78.125,-31.250,-34.180,-19.043,0.000,0
1644802518.372,-60.059,-20.996,-31.738,-21.484,0.000,0
1644802518.376,-53.223,-19.531,-35.645,-27.832,0.000,0
1644802518.380,-66.406,-25.391,-39.062,-36.133,0.000,0
1644802518.384,-75.195,-29.785,-41.992,-38.574,0.000,0
1644802518.388,-84.961,-32.227,-45.410,-41.992,0.000,0
1644802518.392,-73.730,-29.297,-41.504,-45.898,0.000,0
1644802518.396,-47.363,-22.949,-35.156,-39.551,0.000,0
1644802518.399,-38.574,-22.461,-33.691,-27.832,0.000,0
1644802518.403,-59.082,-32.227,-35.645,-17.578,0.000,0
1644802518.407,-84.961,-35.156,-35.645,-31.250,0.000,0
1644802518.411,-79.102,-33.691,-32.715,-43.945,0.000,0
1644802518.415,-51.270,-33.691,-30.762,-32.715,0.000,0
1644802518.419,-41.016,-23.926,-34.668,-27.832,0.000,0
1644802518.423,-62.012,-22.461,-44.434,-46.387,0.000,0
1644802518.426,-75.195,-30.273,-47.852,-57.129,0.000,0
1644802518.430,-71.777,-30.762,-45.410,-62.500,0.000,0
1644802518.434,-68.359,-29.297,-38.574,-57.129,0.000,0
1644802518.438,-61.035,-20.996,-36.621,-51.270,0.000,0
1644802518.442,-61.523,-20.508,-45.898,-56.641,0.000,0
1644802518.446,-88.379,-28.809,-52.246,-60.547,0.000,0
1644802518.450,-96.191,-30.273,-51.270,-62.500,0.000,0
1644802518.454,-66.895,-23.926,-49.805,-62.012,0.000,0
1644802518.457,-65.430,-24.414,-48.340,-55.176,0.000,0
1644802518.461,-82.520,-32.227,-41.992,-50.781,0.000,0
1644802518.465,-89.844,-36.621,-42.969,-44.434,0.000,0
1644802518.469,-76.660,-34.180,-43.945,-43.945,0.000,0
1644802518.473,-51.270,-27.344,-37.598,-41.992,0.000,0
1644802518.477,-46.387,-28.320,-38.086,-31.738,0.000,0
1644802518.481,-56.641,-29.297,-43.457,-36.133,0.000,0
1644802518.484,-56.641,-27.832,-46.875,-32.227,0.000,0
1644802518.488,-59.082,-28.809,-44.922,-26.855,0.000,0
1644802518.492,-52.734,-24.414,-36.133,-23.438,0.000,0
1644802518.496,-38.574,-19.531,-32.227,-20.996,0.000,0
1644802518.500,-39.062,-24.414,-39.551,-17.578,0.000,0
1644802518.504,-49.316,-31.738,-41.992,-21.973,0.000,0
1644802518.508,-52.246,-30.273,-41.504,-32.715,0.000,0
1644802518.512,-38.086,-27.832,-45.898,-33.203,0.000,0
1644802518.516,-32.715,-26.367,-47.852,-23.926,0.000,0
1644802518.520,-40.039,-25.879,-44.922,-13.184,0.000,0
1644802518.523,-57.129,-26.855,-37.109,-11.719,0.000,0
1644802518.527,-68.848,-21.484,-32.715,-18.066,0.000,0
1644802518.531,-55.176,-22.949,-35.156,-16.113,0.000,0
1644802518.535,-36.133,-25.391,-35.156,-19.531,0.000,0
1644802518.539,-39.062,-24.902,-33.203,-17.578,0.000,0
1644802518.543,-54.199,-25.879,-37.598,-10.742,0.000,0
1644802518.547,-68.848,-28.320,-43.457,-20.996,0.000,0
1644802518.551,-66.895,-28.809,-41.504,-24.902,0.000,0
1644802518.555,-48.340,-25.879,-35.156,-33.691,0.000,0
1644802518.558,-37.109,-22.949,-31.250,-28.809,0.000,0
1644802518.562,-56.641,-31.250,-35.645,-19.043,0.000,0
1644802518.566,-77.148,-38.574,-43.457,-26.855,0.000,0
1644802518.570,-72.266,-33.691,-39.062,-41.504,0.000,0
1644802518.574,-60.059,-28.320,-38.574,-49.805,0.000,0
1644802518.578,-43.945,-25.879,-41.016,-38.574,0.000,0
1644802518.582,-51.270,-36.133,-35.645,-26.367,0.000,0
1644802518.585,-70.312,-43.945,-38.086,-36.133,0.000,0
1644802518.590,-57.617,-36.621,-38.574,-39.062,0.000,0
1644802518.594,-40.039,-31.250,-31.250,-31.250,0.000,0
1644802518.597,-45.410,-24.414,-26.367,-30.762,0.000,0
1644802518.601,-71.289,-26.367,-31.250,-29.785,0.000,0
1644802518.605,-78.613,-33.203,-35.645,-40.527,0.000,0
1644802518.609,-68.359,-31.738,-28.809,-47.363,0.000,0
1644802518.613,-64.941,-25.391,-27.344,-41.992,0.000,0
1644802518.617,-52.246,-16.602,-26.855,-33.691,0.000,0
1644802518.621,-58.594,-20.020,-30.762,-32.715,0.000,0
1644802518.624,-69.824,-32.715,-38.086,-30.762,0.000,0
1644802518.628,-70.801,-39.062,-38.574,-20.020,0.000,0
1644802518.632,-78.125,-34.180,-33.691,-24.902,0.000,0
1644802518.636,-67.383,-29.297,-34.668,-22.461,0.000,0
1644802518.640,-68.848,-28.320,-34.668,-34.668,0.000,0
1644802518.644,-72.754,-30.762,-35.156,-62.012,0.000,0
1644802518.648,-65.918,-33.203,-30.762,-38.086,0.000,0
1644802518.652,-61.523,-30.762,-28.320,-20.020,0.000,0
1644802518.656,-58.594,-30.273,-26.855,-16.113,0.000,0
1644802518.659,-70.801,-28.320,-22.461,-2.441,0.000,0
1644802518.663,-62.988,-26.367,-34.668,-55.176,0.000,0
1644802518.667,-48.828,-20.508,-41.016,-101.074,0.000,0
1644802518.671,-42.480,-14.160,-33.691,-60.547,0.000,0
1644802518.675,-32.715,-4.395,-37.109,-41.504,0.000,0
1644802518.679,-31.738,6.348,-36.133,-61.523,0.000,0
1644802518.684,-51.758,-0.977,-38.086,-43.945,0.000,0
1644802518.687,-65.430,-5.371,-44.434,-34.180,0.000,0
1644802518.691,-55.176,2.930,-41.992,-40.527,0.000,0
1644802518.695,-44.922,5.859,-36.621,-42.480,0.000,0
1644802518.699,-33.691,5.371,-27.344,-22.949,0.000,0
1644802518.703,-43.457,0.000,-29.785,-8.301,0.000,0
1644802518.707,-71.777,-7.812,-38.086,-27.832,0.000,0
1644802518.711,-71.777,-4.395,-36.133,-41.992,0.000,0
1644802518.714,-45.898,-6.836,-33.691,-20.996,0.000,0
1644802518.718,-47.363,-13.184,-36.133,-8.301,0.000,0
1644802518.722,-66.895,-9.277,-41.016,-32.227,0.000,0
1644802518.726,-65.430,-5.859,-42.969,-40.039,0.000,0
1644802518.730,-49.316,-0.977,-40.527,-47.363,0.000,0
1644802518.734,-40.527,2.930,-38.574,-48.828,0.000,0
1644802518.738,-43.945,3.906,-39.551,-37.109,0.000,0
1644802518.742,-43.457,-2.441,-44.922,-28.320,0.000,0
1644802518.745,-54.688,-10.254,-46.875,-24.902,0.000,0
1644802518.749,-54.688,-9.766,-44.922,-26.855,0.000,0
1644802518.753,-41.504,-7.324,-46.387,-32.715,0.000,0
1644802518.757,-44.922,-11.719,-47.852,-38.086,0.000,0
1644802518.761,-61.035,-15.625,-53.223,-32.715,0.000,0
1644802518.765,-80.566,-15.137,-52.734,-33.691,0.000,0
1644802518.769,-62.988,-15.137,-44.434,-46.387,0.000,0
1644802518.772,-42.969,-20.996,-42.969,-45.898,0.000,0
1644802518.776,-43.945,-22.461,-40.527,-27.344,0.000,0
1644802518.780,-60.059,-15.625,-40.039,-23.926,0.000,0
1644802518.784,-69.824,-15.137,-41.504,-19.043,0.000,0
1644802518.788,-61.523,-27.344,-36.621,-22.461,0.000,0
1644802518.792,-53.223,-32.227,-35.645,-33.691,0.000,0
1644802518.796,-44.922,-25.879,-41.016,-19.531,0.000,0
1644802518.800,-40.039,-23.926,-43.457,-13.184,0.000,0
1644802518.803,-52.246,-30.762,-42.969,-3.418,0.000,0
1644802518.807,-61.035,-36.621,-43.457,-7.812,0.000,0
1644802518.811,-50.293,-30.762,-44.922,-25.391,0.000,0
1644802518.815,-34.668,-28.809,-38.574,-23.926,0.000,0
1644802518.819,-32.227,-26.855,-31.738,-21.484,0.000,0
1644802518.823,-44.434,-26.367,-30.273,-3.906,0.000,0
1644802518.827,-51.758,-27.832,-31.250,-9.766,0.000,0
1644802518.831,-41.504,-24.414,-33.203,-41.016,0.000,0
1644802518.835,-29.785,-29.297,-35.645,-36.133,0.000,0
1644802518.839,-36.133,-31.250,-29.297,-19.043,0.000,0
1644802518.843,-51.758,-33.203,-26.855,-2.441,0.000,0
1644802518.846,-55.176,-35.645,-28.320,-2.930,0.000,0
1644802518.850,-48.828,-35.645,-26.367,-2.441,0.000,0
1644802518.854,-39.062,-32.715,-20.508,-7.324,0.000,0
1644802518.858,-38.086,-29.785,-15.625,-12.695,0.000,0
1644802518.862,-46.875,-38.574,-20.508,-9.766,0.000,0
1644802518.866,-48.828,-41.016,-19.043,-20.020,0.000,0
1644802518.870,-36.621,-34.668,-9.766,-20.996,0.000,0
1644802518.874,-20.508,-33.691,-6.348,-18.555,0.000,0
1644802518.878,-12.207,-33.691,-3.906,-8.301,0.000,0
1644802518.882,-24.414,-35.645,-0.488,4.883,0.000,0
1644802518.886,-20.020,-35.156,3.418,-3.906,0.000,0
1644802518.890,-15.625,-34.180,5.859,-15.137,0.000,0
1644802518.893,-15.137,-32.715,15.137,-2.441,0.000,0
1644802518.897,-9.277,-29.297,21.973,6.348,0.000,0
1644802518.901,-36.133,-32.715,14.160,9.277,0.000,0
1644802518.905,-44.922,-35.156,15.625,2.441,0.000,0
1644802518.909,-21.973,-38.086,24.414,-17.578,0.000,0
1644802518.913,-14.160,-34.668,30.762,-20.020,0.000,0
1644802518.917,-18.555,-27.344,37.598,-22.461,0.000,0
1644802518.921,-27.832,-35.645,39.062,-6.836,0.000,0
1644802518.925,-41.504,-40.527,41.504,-2.930,0.000,0
1644802518.929,-43.457,-34.668,49.316,-21.484,0.000,0
1644802518.933,-23.438,-29.785,51.270,-16.113,0.000,0
1644802518.937,-4.883,-28.320,61.035,1.465,0.000,0
1644802518.941,-8.301,-32.715,66.895,10.254,0.000,0
1644802518.944,-27.344,-34.180,60.059,7.324,0.000,0
1644802518.948,-38.086,-29.297,59.082,-10.254,0.000,0
1644802518.952,-21.973,-33.691,62.988,-13.184,0.000,0
1644802518.956,-11.230,-42.480,62.500,-15.625,0.000,0
1644802518.960,-21.484,-36.621,64.941,-21.484,0.000,0
1644802518.964,-24.902,-32.715,71.777,-13.184,0.000,0
1644802518.967,-18.066,-33.691,78.125,-12.207,0.000,0
1644802518.971,-6.348,-26.367,81.543,-15.625,0.000,0
1644802518.975,-4.395,-23.438,81.543,-6.348,0.000,0
1644802518.979,-16.602,-30.762,79.590,-3.906,0.000,0
1644802518.983,-37.598,-34.180,77.148,-17.090,0.000,0
1644802518.987,-53.223,-39.062,73.730,-28.320,0.000,0
1644802518.991,-44.434,-36.133,71.289,-35.645,0.000,0
1644802518.994,-23.438,-22.949,72.754,-29.297,0.000,0
1644802518.998,-23.438,-21.973,75.684,-8.301,0.000,0
1644802519.002,-38.086,-28.809,72.754,0.000,0.000,0
1644802519.006,-43.457,-30.762,67.383,-21.484,0.000,0
1644802519.010,-34.180,-31.250,70.801,-20.996,0.000,0
1644802519.014,-28.320,-38.086,67.383,-6.348,0.000,0
1644802519.018,-36.133,-37.598,57.129,-13.184,0.000,0
1644802519.021,-41.992,-27.344,54.688,-15.137,0.000,0
1644802519.025,-43.457,-30.273,55.176,-22.461,0.000,0
1644802519.029,-42.969,-32.715,58.105,-26.855,0.000,0
1644802519.033,-27.344,-23.438,61.523,-8.301,0.000,0
1644802519.037,-28.809,-18.066,54.199,-2.441,0.000,0
1644802519.041,-43.457,-22.949,51.758,-9.277,0.000,1
1644802519.045,-46.875,-34.668,53.711,-20.508,0.000,0
1644802519.049,-67.383,-39.062,48.828,-38.086,0.000,0
1644802519.052,-66.895,-30.273,51.758,-41.504,0.000,0
1644802519.057,-57.617,-29.297,53.223,-29.785,0.000,0
1644802519.060,-60.547,-32.227,53.711,-35.645,0.000,0
1644802519.064,-74.219,-30.273,51.758,-46.875,0.000,0
1644802519.068,-69.336,-28.809,56.152,-48.340,0.000,0
1644802519.072,-52.246,-30.762,57.129,-45.898,0.000,0
1644802519.076,-53.711,-32.227,49.316,-36.133,0.000,0
1644802519.080,-67.383,-25.879,51.758,-39.062,0.000,0
1644802519.084,-71.289,-28.809,52.734,-29.297,0.000,0
1644802519.087,-74.219,-38.086,50.293,-35.645,0.000,0
1644802519.091,-77.637,-40.527,57.129,-55.176,0.000,0
1644802519.095,-78.125,-33.691,62.988,-50.293,0.000,0
1644802519.099,-83.984,-32.715,56.152,-41.016,0.000,0
1644802519.103,-81.055,-43.945,47.852,-41.504,0.000,0
1644802519.107,-84.961,-46.387,44.922,-54.199,0.000,0
1644802519.111,-74.219,-37.598,47.363,-58.105,0.000,0
1644802519.115,-51.758,-32.227,48.828,-51.758,0.000,0
1644802519.119,-58.105,-31.738,47.852,-37.598,0.000,0
1644802519.122,-76.172,-34.180,46.875,-31.250,0.000,0
1644802519.126,-62.988,-26.855,47.852,-49.316,0.000,0
1644802519.130,-46.875,-20.996,45.898,-56.152,0.000,0
1644802519.134,-48.340,-27.344,37.109,-39.551,0.000,0
1644802519.138,-56.641,-25.391,36.621,-28.809,0.000,0
1644802519.142,-71.289,-22.949,35.156,-36.133,0.000,0
1644802519.146,-76.172,-30.762,34.668,-51.270,0.000,0
1644802519.150,-73.242,-32.227,32.227,-60.059,0.000,0
1644802519.154,-68.359,-28.809,25.879,-51.270,0.000,0
1644802519.158,-65.430,-30.273,23.438,-46.387,0.000,0
1644802519.162,-69.336,-34.668,22.461,-39.551,0.000,0
1644802519.165,-72.754,-34.668,20.996,-46.387,0.000,0
1644802519.169,-79.590,-32.227,13.672,-61.035,0.000,0
1644802519.173,-73.242,-32.715,9.277,-58.105,0.000,0
1644802519.177,-65.918,-31.250,7.812,-41.504,0.000,0
1644802519.181,-82.031,-32.715,5.371,-39.062,0.000,0
1644802519.185,-97.656,-32.227,3.906,-51.270,0.000,0
1644802519.189,-81.543,-29.297,7.324,-47.363,0.000,0
1644802519.192,-74.219,-33.691,6.836,-49.316,0.000,0
1644802519.197,-81.543,-33.691,-2.441,-48.340,0.000,0
1644802519.201,-77.637,-27.832,-5.371,-38.086,0.000,0
1644802519.205,-96.680,-28.809,-6.836,-38.574,0.000,0
1644802519.209,-94.238,-29.785,-8.789,-48.340,0.000,0
1644802519.213,-70.801,-32.227,-10.742,-49.316,0.000,0
1644802519.216,-66.895,-37.598,-20.996,-50.293,0.000,0
1644802519.220,-67.871,-34.668,-23.926,-41.992,0.000,0
1644802519.224,-76.660,-30.762,-17.578,-36.133,0.000,0
1644802519.228,-80.566,-29.785,-16.602,-49.805,0.000,0
1644802519.232,-71.289,-23.926,-21.484,-52.734,0.000,0
1644802519.236,-65.430,-23.926,-28.809,-41.016,0.000,0
1644802519.240,-67.871,-32.715,-34.180,-32.715,0.000,0
1644802519.244,-88.867,-36.621,-36.133,-41.992,0.000,0
1644802519.248,-96.191,-37.109,-38.086,-62.988,0.000,0
1644802519.252,-77.148,-35.156,-39.062,-65.430,0.000,0
1644802519.256,-73.730,-31.250,-39.551,-64.941,0.000,0
1644802519.260,-77.637,-28.320,-41.504,-60.547,0.000,0
1644802519.263,-76.660,-32.715,-43.457,-49.316,0.000,0
1644802519.267,-73.242,-34.668,-41.992,-44.434,0.000,0
1644802519.271,-54.199,-32.227,-38.574,-44.434,0.000,0
1644802519.275,-49.805,-30.762,-37.109,-45.410,0.000,0
1644802519.279,-64.453,-31.250,-40.039,-39.062,0.000,0
1644802519.283,-74.219,-38.574,-44.434,-40.527,0.000,0
1644802519.287,-79.102,-39.062,-45.410,-52.246,0.000,0
1644802519.291,-66.895,-32.227,-43.457,-47.852,0.000,0
1644802519.294,-59.570,-31.738,-43.457,-39.551,0.000,0
1644802519.298,-50.781,-35.156,-44.922,-20.508,0.000,0
1644802519.302,-62.988,-39.062,-46.387,-16.113,0.000,0
1644802519.306,-82.031,-32.715,-43.945,-46.387,0.000,0
1644802519.310,-65.430,-28.320,-40.527,-50.781,0.000,0
1644802519.314,-59.570,-30.762,-39.551,-39.062,0.000,0
1644802519.318,-63.965,-27.832,-38.086,-24.902,0.000,0
1644802519.321,-68.848,-24.902,-42.969,-23.438,0.000,0
1644802519.325,-75.684,-28.809,-45.898,-38.574,0.000,0
1644802519.329,-67.871,-29.297,-44.434,-51.270,0.000,0
1644802519.333,-58.594,-25.879,-49.316,-50.781,0.000,0
1644802519.338,-55.664,-25.391,-43.457,-42.969,0.000,0
1644802519.342,-64.453,-26.855,-42.969,-40.039,0.000,0
1644802519.346,-73.730,-32.715,-50.781,-31.738,0.000,0
1644802519.350,-62.988,-30.762,-45.410,-33.691,0.000,0
1644802519.353,-50.781,-24.902,-40.039,-26.855,0.000,0
1644802519.357,-47.363,-28.809,-38.574,-34.668,0.000,0
1644802519.361,-57.129,-41.504,-43.945,-44.922,0.000,0
1644802519.365,-82.520,-42.969,-45.410,-55.664,0.000,0
1644802519.369,-83.984,-37.598,-43.945,-59.570,0.000,0
1644802519.373,-61.035,-33.203,-41.016,-38.086,0.000,0
1644802519.377,-60.059,-28.809,-41.016,-29.297,0.000,0
1644802519.380,-69.824,-27.832,-45.410,-30.273,0.000,0
1644802519.385,-66.895,-35.156,-50.781,-38.574,0.000,0
1644802519.388,-64.453,-34.668,-55.176,-42.969,0.000,0
1644802519.392,-59.570,-28.320,-43.945,-34.180,0.000,0
1644802519.396,-50.781,-25.879,-40.527,-29.785,0.000,0
1644802519.400,-53.711,-23.438,-49.316,-24.902,0.000,0
1644802519.404,-69.336,-30.273,-47.363,-23.926,0.000,0
1644802519.408,-72.266,-33.203,-44.434,-33.203,0.000,0
1644802519.412,-63.965,-30.762,-44.922,-44.434,0.000,0
1644802519.415,-62.012,-27.832,-45.898,-38.574,0.000,0
1644802519.419,-55.176,-33.203,-50.781,-22.949,0.000,0
1644802519.423,-61.523,-35.645,-49.805,-29.785,0.000,0
1644802519.427,-71.289,-29.785,-43.457,-26.367,0.000,0
1644802519.431,-58.105,-27.832,-41.504,-22.461,0.000,0
1644802519.435,-58.594,-23.438,-42.480,-31.738,0.000,0
1644802519.439,-65.430,-24.414,-41.504,-12.695,0.000,0
1644802519.443,-70.312,-30.273,-44.434,-8.789,0.000,0
1644802519.447,-68.848,-31.738,-46.875,-25.391,0.000,0
1644802519.451,-53.223,-32.227,-46.387,-21.484,0.000,0
1644802519.454,-53.223,-26.855,-41.016,-32.227,0.000,0
1644802519.458,-60.547,-17.090,-38.086,-37.598,0.000,0
1644802519.462,-72.754,-25.879,-44.434,-30.273,0.000,0
1644802519.466,-80.078,-30.762,-42.969,-35.156,0.000,0
1644802519.470,-63.477,-21.484,-36.621,-41.992,0.000,0
1644802519.474,-49.316,-17.578,-40.039,-37.109,0.000,0
1644802519.478,-70.801,-26.367,-45.898,-28.809,0.000,0
1644802519.482,-87.891,-27.832,-49.316,-25.879,0.000,0
1644802519.486,-84.961,-23.438,-43.945,-31.738,0.000,0
1644802519.490,-73.730,-24.414,-37.109,-43.945,0.000,0
1644802519.494,-62.988,-27.344,-42.969,-32.715,0.000,0
1644802519.497,-64.941,-30.273,-47.363,-21.973,0.000,0
1644802519.501,-79.590,-34.180,-49.805,-36.621,0.000,0
1644802519.505,-84.473,-32.227,-50.293,-43.457,0.000,0
1644802519.509,-63.965,-27.832,-46.875,-41.992,0.000,0
1644802519.513,-55.664,-23.926,-40.527,-40.527,0.000,0
1644802519.517,-71.777,-23.926,-41.016,-37.109,0.000,0
1644802519.521,-79.102,-32.715,-52.246,-39.062,0.000,0
1644802519.525,-79.102,-36.133,-58.594,-41.992,0.000,0
1644802519.529,-66.895,-31.738,-57.617,-39.062,0.000,0
1644802519.532,-55.664,-27.344,-55.664,-37.109,0.000,0
1644802519.536,-60.059,-28.809,-57.617,-40.039,0.000,0
1644802519.540,-81.055,-33.691,-59.570,-40.527,0.000,0
1644802519.544,-91.309,-36.621,-59.082,-47.852,0.000,0
1644802519.548,-79.102,-36.133,-59.082,-51.758,0.000,0
1644802519.552,-72.266,-34.668,-54.199,-42.480,0.000,0
1644802519.556,-73.730,-34.668,-58.594,-38.086,0.000,0
1644802519.559,-79.590,-35.645,-62.012,-36.621,0.000,0
1644802519.563,-88.379,-38.574,-64.941,-45.410,0.000,0
1644802519.567,-77.637,-39.551,-67.871,-50.781,0.000,0
1644802519.572,-60.059,-38.574,-62.988,-44.434,0.000,0
1644802519.576,-69.824,-31.250,-65.430,-40.039,0.000,0
1644802519.580,-83.008,-27.832,-60.059,-37.598,0.000,0
1644802519.583,-79.590,-30.762,-52.246,-47.363,0.000,0
1644802519.587,-74.219,-25.879,-57.129,-64.453,0.000,0
1644802519.591,-73.730,-21.484,-59.082,-62.500,0.000,0
1644802519.595,-74.707,-24.902,-63.477,-56.641,0.000,0
1644802519.599,-73.242,-33.691,-71.289,-49.805,0.000,0
1644802519.603,-89.355,-34.668,-68.848,-46.875,0.000,0
1644802519.607,-88.379,-28.320,-58.105,-69.336,0.000,0
1644802519.610,-68.359,-26.367,-55.176,-55.176,0.000,0
1644802519.614,-64.941,-25.391,-52.734,-29.785,0.000,0
1644802519.618,-68.359,-25.391,-48.828,-24.902,0.000,0
1644802519.622,-82.520,-28.809,-52.734,-29.785,0.000,0
1644802519.626,-81.055,-31.250,-53.223,-43.945,0.000,0
1644802519.630,-70.312,-32.227,-55.664,-47.852,0.000,0
1644802519.634,-69.824,-26.367,-56.641,-42.969,0.000,0
1644802519.638,-76.172,-23.438,-58.105,-39.551,0.000,0
1644802519.641,-81.055,-31.738,-61.523,-40.039,0.000,0
1644802519.645,-76.660,-37.109,-62.012,-51.758,0.000,0
1644802519.649,-66.895,-26.367,-56.641,-56.152,0.000,0
1644802519.653,-64.453,-21.973,-53.223,-48.828,0.000,0
1644802519.657,-69.824,-34.180,-58.105,-31.250,0.000,0
1644802519.661,-84.473,-37.598,-60.547,-30.762,0.000,0
1644802519.665,-87.891,-31.738,-57.129,-45.410,0.000,0
1644802519.669,-69.336,-22.949,-55.176,-39.551,0.000,0
1644802519.672,-53.711,-27.832,-58.105,-38.086,0.000,0
1644802519.676,-61.035,-29.785,-57.129,-38.574,0.000,0
1644802519.680,-80.566,-19.531,-56.152,-38.574,0.000,0
1644802519.684,-83.984,-25.879,-61.523,-45.898,0.000,0
1644802519.688,-72.754,-32.715,-56.641,-48.340,0.000,0
1644802519.692,-67.871,-27.832,-53.223,-51.758,0.000,0
1644802519.696,-76.172,-23.438,-55.664,-64.941,0.000,0
1644802519.699,-84.473,-25.391,-52.246,-68.359,0.000,0
1644802519.703,-86.426,-28.320,-52.734,-63.965,0.000,0
1644802519.707,-83.984,-25.879,-55.176,-57.129,0.000,0
1644802519.711,-77.637,-21.484,-53.223,-55.664,0.000,0
1644802519.715,-68.359,-25.391,-53.223,-55.664,0.000,0
1644802519.719,-75.195,-27.344,-59.082,-46.387,0.000,0
1644802519.723,-98.145,-30.273,-62.012,-45.410,0.000,0
1644802519.726,-92.773,-31.738,-59.570,-71.777,0.000,0
1644802519.730,-68.848,-35.645,-58.105,-79.590,0.000,0
1644802519.734,-65.430,-33.691,-54.199,-58.105,0.000,0
1644802519.738,-90.332,-29.297,-51.270,-48.828,0.000,0
1644802519.742,-108.887,-33.691,-52.734,-60.547,0.000,0
1644802519.746,-82.520,-35.645,-53.711,-59.570,0.000,0
1644802519.750,-62.988,-36.133,-50.293,-44.922,0.000,0
1644802519.753,-76.172,-31.250,-49.805,-53.223,0.000,0
1644802519.758,-83.496,-32.227,-54.199,-57.617,0.000,0
1644802519.762,-91.797,-36.621,-59.082,-55.664,0.000,0
1644802519.765,-91.797,-36.621,-57.617,-68.359,0.000,0
1644802519.769,-73.242,-34.180,-55.664,-69.336,0.000,0
1644802519.773,-70.312,-31.738,-50.781,-49.316,0.000,0
1644802519.777,-70.801,-29.297,-45.410,-32.227,0.000,0
1644802519.781,-66.895,-35.645,-48.828,-24.414,0.000,0
1644802519.785,-59.570,-39.062,-51.270,-35.156,0.000,0
1644802519.789,-65.430,-38.574,-52.246,-43.457,0.000,0
1644802519.792,-67.383,-39.551,-51.270,-37.598,0.000,0
1644802519.796,-57.617,-28.320,-44.922,-34.668,0.000,0
1644802519.800,-71.777,-26.367,-42.969,-37.109,0.000,0
1644802519.804,-83.496,-33.203,-49.805,-38.574,0.000,0
1644802519.808,-65.430,-31.250,-51.270,-41.504,0.000,0
1644802519.812,-40.039,-24.902,-45.898,-44.922,0.000,0
1644802519.816,-56.152,-24.414,-44.922,-41.992,0.000,0
1644802519.820,-79.102,-27.832,-43.457,-36.133,0.000,0
1644802519.824,-72.754,-28.320,-40.039,-36.133,0.000,0
1644802519.827,-61.523,-24.902,-38.574,-38.086,0.000,0
1644802519.831,-53.223,-22.461,-39.062,-28.320,0.000,0
1644802519.835,-62.988,-25.879,-42.969,-24.902,0.000,0
1644802519.839,-73.242,-34.668,-45.410,-32.715,0.000,0
1644802519.843,-75.195,-30.273,-43.945,-54.199,0.000,0
1644802519.847,-66.406,-22.461,-44.922,-60.547,0.000,0
1644802519.851,-53.711,-23.438,-45.410,-45.898,0.000,0
1644802519.855,-54.199,-25.391,-44.922,-36.621,0.000,0
1644802519.859,-65.430,-30.762,-48.828,-32.227,0.000,0
1644802519.863,-72.754,-35.645,-47.852,-34.668,0.000,0
1644802519.866,-72.754,-29.785,-39.062,-36.621,0.000,0
1644802519.870,-62.988,-28.320,-38.086,-31.250,0.000,0
1644802519.874,-61.035,-33.203,-44.434,-28.320,0.000,0
1644802519.878,-71.289,-35.156,-45.410,-23.926,0.000,0
1644802519.882,-76.172,-35.156,-42.969,-25.391,0.000,0
1644802519.886,-67.871,-33.691,-41.992,-36.133,0.000,0
1644802519.890,-54.199,-29.297,-41.016,-33.691,0.000,1
1644802519.893,-62.988,-32.715,-47.363,-32.715,0.000,0
1644802519.898,-71.289,-34.180,-50.293,-45.410,0.000,0
1644802519.901,-64.941,-30.273,-47.852,-45.410,0.000,0
1644802519.905,-61.523,-29.297,-46.387,-44.922,0.000,0
1644802519.909,-56.152,-29.785,-43.945,-40.527,0.000,0
1644802519.913,-54.688,-28.320,-45.898,-40.039,0.000,0
1644802519.917,-67.383,-32.715,-50.781,-39.062,0.000,0
1644802519.921,-86.426,-32.227,-53.711,-33.203,0.000,0
1644802519.925,-86.426,-31.250,-51.758,-30.273,0.000,0
1644802519.928,-60.059,-31.738,-48.340,-26.367,0.000,0
1644802519.932,-62.012,-29.297,-49.805,-41.016,0.000,0
1644802519.936,-74.707,-33.691,-53.711,-48.828,0.000,0
1644802519.940,-91.797,-36.621,-55.176,-53.223,0.000,0
1644802519.944,-94.238,-41.016,-53.223,-57.129,0.000,0
1644802519.948,-70.312,-41.016,-49.805,-44.434,0.000,0
1644802519.952,-65.430,-35.156,-45.410,-39.551,0.000,0
1644802519.956,-69.824,-32.715,-45.898,-38.574,0.000,0
1644802519.960,-84.961,-38.086,-54.199,-31.250,0.000,0
1644802519.963,-92.773,-43.457,-60.059,-32.227,0.000,0
1644802519.967,-79.102,-39.062,-60.547,-37.598,0.000,0
1644802519.971,-74.707,-38.574,-55.176,-34.180,0.000,0
1644802519.975,-77.637,-35.645,-46.875,-19.043,0.000,0
1644802519.979,-83.984,-29.297,-50.293,-19.043,0.000,0
1644802519.983,-85.938,-35.156,-52.734,-27.344,0.000,0
1644802519.987,-71.289,-38.086,-47.852,-42.969,0.000,0
1644802519.991,-60.059,-31.250,-45.898,-36.621,0.000,0
1644802519.994,-62.012,-26.855,-43.457,-25.879,0.000,0
1644802519.998,-77.637,-33.691,-48.828,-27.344,0.000,0
1644802520.002,-87.891,-39.551,-52.734,-30.273,0.000,0
1644802520.006,-69.824,-35.645,-47.363,-43.945,0.000,0
1644802520.010,-58.105,-33.691,-49.805,-50.781,0.000,0
1644802520.014,-54.199,-36.133,-56.641,-36.621,0.000,0
1644802520.018,-70.312,-40.039,-54.688,-32.227,0.000,0
1644802520.021,-90.332,-37.109,-47.363,-44.922,0.000,0
1644802520.025,-67.383,-33.691,-51.758,-55.176,0.000,0
1644802520.029,-62.500,-34.668,-56.152,-61.523,0.000,0
1644802520.033,-72.266,-31.738,-53.223,-61.035,0.000,0
1644802520.037,-84.473,-32.715,-53.223,-53.711,0.000,0
1644802520.041,-93.750,-40.039,-58.105,-47.363,0.000,0
1644802520.045,-74.707,-37.109,-55.176,-45.898,0.000,0
1644802520.049,-55.664,-33.203,-51.758,-37.598,0.000,0
1644802520.052,-55.664,-35.156,-55.664,-32.715,0.000,0
1644802520.056,-66.895,-32.715,-51.270,-33.203,0.000,0
1644802520.060,-71.777,-34.668,-45.898,-26.855,0.000,0
1644802520.064,-57.129,-34.180,-39.062,-27.344,0.000,0
1644802520.068,-43.945,-25.879,-30.273,-22.461,0.000,0
1644802520.072,-47.363,-20.996,-36.133,-24.414,0.000,0
1644802520.076,-63.477,-28.320,-48.340,-33.203,0.000,0
1644802520.080,-68.848,-33.691,-46.387,-32.715,0.000,0
1644802520.083,-65.918,-30.762,-42.480,-34.668,0.000,0
1644802520.087,-54.688,-31.250,-42.480,-26.855,0.000,0
1644802520.091,-50.781,-31.738,-39.062,-20.508,0.000,0
1644802520.095,-63.477,-26.367,-41.504,-20.996,0.000,0
1644802520.099,-77.637,-26.855,-44.434,-17.578,0.000,0
1644802520.103,-72.754,-35.156,-45.410,-39.551,0.000,0
1644802520.107,-50.293,-33.691,-41.504,-53.711,0.000,0
1644802520.110,-50.781,-26.367,-38.574,-42.969,0.000,0
1644802520.114,-62.988,-25.391,-38.574,-30.762,0.000,0
1644802520.118,-72.754,-32.227,-44.434,-21.973,0.000,0
1644802520.122,-77.148,-41.992,-45.898,-32.715,0.000,0
1644802520.126,-66.406,-36.133,-38.574,-37.598,0.000,0
1644802520.130,-43.945,-25.391,-35.156,-29.785,0.000,0
1644802520.134,-47.852,-29.297,-32.227,-19.043,0.000,0
1644802520.138,-70.801,-34.180,-33.203,-14.160,0.000,0
1644802520.142,-73.242,-36.133,-40.039,-35.156,0.000,0
1644802520.146,-67.871,-40.527,-47.363,-44.434,0.000,0
1644802520.149,-54.199,-41.992,-45.898,-33.203,0.000,0
1644802520.153,-58.105,-39.551,-41.504,-31.738,0.000,0
1644802520.157,-71.289,-34.180,-46.387,-35.645,0.000,0
1644802520.161,-70.801,-34.668,-50.781,-46.387,0.000,0
1644802520.165,-55.176,-32.227,-48.828,-48.340,0.000,0
1644802520.169,-38.574,-25.391,-43.457,-39.062,0.000,0
1644802520.173,-55.664,-25.391,-44.434,-35.156,0.000,0
1644802520.177,-77.148,-31.250,-49.805,-29.297,0.000,0
1644802520.181,-81.543,-36.621,-50.781,-40.039,0.000,0
1644802520.185,-65.430,-29.785,-46.387,-57.129,0.000,0
1644802520.188,-52.734,-22.949,-42.480,-44.434,0.000,0
1644802520.192,-46.387,-30.273,-38.086,-32.227,0.000,0
1644802520.196,-56.152,-39.551,-40.039,-25.391,0.000,0
1644802520.200,-79.590,-38.086,-44.434,-25.391,0.000,0
1644802520.204,-69.824,-26.367,-43.457,-37.109,0.000,0
1644802520.208,-48.828,-23.438,-40.039,-29.297,0.000,0
1644802520.212,-45.898,-23.926,-41.504,-22.949,0.000,0
1644802520.215,-58.594,-22.949,-44.434,-26.855,0.000,0
1644802520.219,-74.707,-32.227,-44.922,-41.016,0.000,0
1644802520.223,-73.242,-31.250,-43.457,-50.781,0.000,0
1644802520.227,-55.176,-25.391,-39.062,-40.039,0.000,0
1644802520.231,-51.758,-26.855,-41.504,-34.668,0.000,0
1644802520.235,-72.754,-36.133,-48.340,-25.879,0.000,0
1644802520.239,-89.355,-41.504,-45.410,-24.414,0.000,0
1644802520.243,-84.961,-38.574,-41.992,-41.992,0.000,0
1644802520.247,-76.172,-35.645,-43.945,-51.270,0.000,0
1644802520.251,-73.730,-36.621,-42.480,-47.363,0.000,0
1644802520.254,-64.941,-40.527,-42.480,-24.902,0.000,0
1644802520.258,-71.289,-37.109,-40.527,-28.320,0.000,0
1644802520.262,-71.777,-27.832,-34.180,-49.316,0.000,0
1644802520.266,-47.852,-29.297,-36.133,-41.504,0.000,0
1644802520.270,-32.715,-36.133,-39.551,-35.645,0.000,0
1644802520.274,-52.734,-38.086,-42.480,-36.621,0.000,0
1644802520.278,-79.590,-39.062,-43.945,-35.645,0.000,0
1644802520.282,-76.660,-39.062,-34.668,-47.363,0.000,0
1644802520.286,-66.895,-29.785,-29.297,-44.434,0.000,0
1644802520.289,-56.641,-23.438,-36.133,-30.762,0.000,0
1644802520.293,-55.664,-23.926,-38.086,-22.461,0.000,0
1644802520.297,-71.289,-33.691,-36.133,-21.484,0.000,0
1644802520.301,-85.449,-38.574,-35.156,-26.855,0.000,0
1644802520.305,-67.383,-28.809,-33.203,-38.574,0.000,0
1644802520.309,-59.570,-23.438,-34.180,-48.828,0.000,0
1644802520.313,-62.012,-22.949,-36.133,-46.387,0.000,0
1644802520.317,-71.289,-28.809,-41.992,-33.203,0.000,0
1644802520.321,-75.195,-33.691,-41.504,-36.621,0.000,0
1644802520.324,-68.359,-30.762,-38.086,-41.504,0.000,0
1644802520.328,-62.988,-23.438,-36.133,-17.090,0.000,0
1644802520.332,-57.617,-25.391,-40.039,-5.859,0.000,0
1644802520.336,-79.102,-31.250,-48.828,-25.879,0.000,0
1644802520.340,-89.844,-31.738,-56.641,-49.805,0.000,0
1644802520.344,-69.336,-30.762,-58.105,-50.781,0.000,0
1644802520.348,-54.688,-24.902,-52.246,-45.898,0.000,0
1644802520.351,-59.082,-21.484,-52.734,-46.387,0.000,0
1644802520.355,-73.730,-31.250,-51.270,-34.180,0.000,0
1644802520.359,-80.078,-36.621,-46.875,-30.273,0.000,0
1644802520.363,-67.383,-30.762,-46.875,-35.645,0.000,0
1644802520.367,-64.453,-27.344,-42.969,-30.273,0.000,0
1644802520.371,-63.477,-32.227,-44.922,-28.809,0.000,0
1644802520.375,-55.664,-33.691,-49.316,-25.879,0.000,0
1644802520.379,-64.453,-32.227,-43.945,-32.227,0.000,0
1644802520.383,-68.848,-33.203,-42.480,-43.945,0.000,0
1644802520.386,-47.363,-32.227,-43.457,-32.227,0.000,0
1644802520.390,-43.457,-30.762,-47.852,-24.902,0.000,0
1644802520.394,-63.477,-27.344,-48.828,-36.621,0.000,0
1644802520.398,-73.242,-26.855,-50.781,-27.832,0.000,0
1644802520.402,-60.547,-25.391,-51.758,-37.109,0.000,0
1644802520.406,-41.992,-23.438,-41.504,-40.527,0.000,0
1644802520.410,-45.898,-22.461,-38.574,-29.297,0.000,0
1644802520.414,-59.082,-26.367,-41.992,-24.414,0.000,0
1644802520.418,-74.219,-31.250,-41.016,-21.484,0.000,0
1644802520.421,-76.172,-28.320,-40.039,-29.297,0.000,0
1644802520.425,-54.199,-24.414,-41.016,-30.273,0.000,0
1644802520.429,-49.316,-28.809,-47.852,-25.879,0.000,0
1644802520.433,-56.152,-32.227,-46.387,-25.879,0.000,0
1644802520.437,-73.242,-33.691,-37.109,-24.902,0.000,0
1644802520.441,-69.824,-32.227,-37.109,-35.645,0.000,0
1644802520.445,-47.852,-27.344,-37.598,-43.457,0.000,0
1644802520.448,-61.035,-27.832,-39.551,-43.457,0.000,0
1644802520.452,-80.078,-31.738,-41.992,-36.133,0.000,0
1644802520.457,-84.961,-31.250,-40.527,-21.484,0.000,0
1644802520.460,-66.406,-26.367,-38.086,-24.414,0.000,0
1644802520.464,-53.711,-23.926,-37.598,-46.387,0.000,0
1644802520.468,-61.035,-23.926,-39.551,-42.969,0.000,0
1644802520.472,-55.664,-21.484,-38.086,-30.273,0.000,0
1644802520.476,-68.848,-31.250,-43.945,-25.391,0.000,0
1644802520.480,-81.543,-39.062,-45.898,-36.133,0.000,0
1644802520.484,-63.965,-26.367,-33.203,-44.922,0.000,0
1644802520.488,-39.551,-20.020,-29.785,-28.809,0.000,0
1644802520.491,-39.551,-29.785,-38.574,-19.531,0.000,0
1644802520.495,-68.848,-34.668,-44.922,-31.250,0.000,0
1644802520.499,-85.449,-29.785,-42.480,-45.898,0.000,0
1644802520.503,-73.242,-32.715,-39.062,-47.852,0.000,0
1644802520.507,-63.965,-33.691,-40.039,-31.250,0.000,0
1644802520.511,-62.988,-28.809,-35.645,-23.926,0.000,0
1644802520.515,-70.801,-31.250,-40.039,-34.668,0.000,0
1644802520.519,-69.824,-32.227,-43.945,-36.133,0.000,0
1644802520.523,-60.059,-29.297,-33.691,-33.203,0.000,0
1644802520.527,-53.223,-32.227,-37.598,-32.227,0.000,0
1644802520.530,-56.641,-29.297,-42.480,-26.367,0.000,0
1644802520.534,-77.148,-29.297,-38.086,-21.973,0.000,0
1644802520.538,-87.891,-32.227,-35.645,-19.531,0.000,0
1644802520.542,-62.012,-25.879,-32.715,-31.738,0.000,0
1644802520.546,-46.387,-20.996,-32.715,-41.016,0.000,0
1644802520.550,-51.758,-15.137,-31.250,-26.855,0.000,0
1644802520.554,-60.547,-18.066,-31.738,-16.113,0.000,0
1644802520.558,-79.102,-32.715,-39.062,-24.902,0.000,0
1644802520.562,-71.777,-33.691,-39.551,-46.875,0.000,0
1644802520.566,-46.387,-30.762,-33.691,-46.875,0.000,0
1644802520.569,-41.504,-35.645,-32.715,-36.133,0.000,0
1644802520.573,-59.570,-35.645,-38.574,-30.273,0.000,0
1644802520.577,-75.195,-30.762,-43.945,-24.414,0.000,0
1644802520.581,-70.801,-29.785,-42.969,-19.043,0.000,0
1644802520.585,-50.293,-28.320,-34.668,-13.184,0.000,0
1644802520.589,-51.758,-22.461,-32.715,-15.137,0.000,0
1644802520.593,-62.500,-21.484,-36.133,-13.184,0.000,0
1644802520.597,-63.477,-28.320,-41.016,-19.043,0.000,0
1644802520.601,-64.453,-34.180,-44.922,-48.828,0.000,0
1644802520.604,-61.035,-30.762,-41.016,-38.574,0.000,0
1644802520.608,-48.828,-20.996,-32.227,-15.625,0.000,0
1644802520.612,-50.293,-21.973,-35.156,-32.715,0.000,0
1644802520.616,-74.707,-28.320,-42.969,-27.832,0.000,0
1644802520.620,-70.801,-25.879,-43.945,-31.250,0.000,0
1644802520.624,-52.246,-26.855,-43.457,-41.992,0.000,0
1644802520.628,-59.082,-30.762,-40.527,-31.738,0.000,0
1644802520.632,-67.871,-32.227,-37.598,-36.621,0.000,0
1644802520.635,-82.520,-38.574,-39.551,-28.809,0.000,0
1644802520.639,-86.426,-45.410,-41.504,-22.461,0.000,0
1644802520.643,-71.289,-42.969,-43.457,-42.969,0.000,0
1644802520.647,-67.383,-32.227,-42.480,-30.762,0.000,0
1644802520.651,-62.500,-27.832,-40.527,-32.227,0.000,0
1644802520.655,-73.242,-35.156,-40.039,-35.645,0.000,0
1644802520.659,-81.543,-39.551,-39.062,-29.297,0.000,0
1644802520.663,-68.848,-35.645,-33.203,-31.738,0.000,0
1644802520.667,-63.477,-28.320,-32.715,-29.297,0.000,0
1644802520.670,-55.664,-31.738,-38.574,-15.625,0.000,0
1644802520.674,-67.871,-41.016,-40.039,-6.348,0.000,0
1644802520.678,-80.566,-36.133,-39.062,-27.832,0.000,0
1644802520.682,-67.871,-29.297,-36.133,-40.527,0.000,0
1644802520.686,-52.734,-25.879,-33.691,-30.273,0.000,1
1644802520.690,-48.340,-22.461,-31.738,-12.207,0.000,0
1644802520.694,-62.500,-26.855,-32.227,-10.742,0.000,0
1644802520.698,-77.148,-35.156,-37.598,-33.203,0.000,0
1644802520.702,-67.871,-34.180,-39.062,-30.762,0.000,0
1644802520.705,-55.176,-34.180,-38.086,-28.320,0.000,0
1644802520.709,-62.988,-36.133,-35.645,-29.785,0.000,0
1644802520.713,-83.008,-38.086,-37.109,-22.461,0.000,0
1644802520.717,-95.215,-42.480,-41.992,-27.344,0.000,0
1644802520.721,-86.426,-35.645,-42.480,-41.016,0.000,0
1644802520.725,-70.801,-28.320,-41.992,-49.805,0.000,0
1644802520.729,-60.547,-31.738,-38.574,-40.527,0.000,0
1644802520.733,-64.453,-32.715,-39.062,-31.738,0.000,0
1644802520.737,-83.496,-37.598,-41.016,-49.805,0.000,0
1644802520.740,-78.613,-37.109,-37.598,-51.270,0.000,0
1644802520.744,-57.617,-29.785,-38.086,-37.598,0.000,0
1644802520.748,-54.199,-32.227,-40.039,-29.297,0.000,0
1644802520.752,-69.824,-35.645,-40.039,-7.324,0.000,0
1644802520.756,-83.496,-34.180,-39.062,-16.113,0.000,0
1644802520.760,-69.824,-36.621,-35.156,-36.133,0.000,0
1644802520.764,-54.688,-34.668,-36.621,-28.809,0.000,0
1644802520.768,-60.547,-29.785,-38.574,-30.273,0.000,0
1644802520.771,-57.129,-31.738,-34.180,-25.391,0.000,0
1644802520.775,-71.289,-36.621,-37.598,-24.414,0.000,0
1644802520.779,-84.961,-40.039,-43.457,-45.410,0.000,0
1644802520.783,-71.289,-34.180,-40.039,-53.711,0.000,0
1644802520.787,-56.641,-32.227,-42.480,-40.527,0.000,0
1644802520.791,-58.105,-34.668,-45.898,-25.879,0.000,0
1644802520.795,-80.078,-31.738,-45.898,-27.344,0.000,0
1644802520.799,-93.262,-35.645,-43.457,-36.621,0.000,0
1644802520.802,-72.266,-31.250,-34.668,-30.762,0.000,0
1644802520.806,-49.316,-29.785,-34.180,-18.555,0.000,0
1644802520.810,-60.547,-36.621,-38.574,-19.043,0.000,0
1644802520.814,-84.473,-37.109,-40.039,-32.227,0.000,0
1644802520.818,-86.914,-39.551,-38.574,-35.156,0.000,0
1644802520.822,-60.059,-36.621,-35.156,-33.691,0.000,0
1644802520.826,-52.246,-34.668,-32.715,-36.133,0.000,0
1644802520.830,-65.918,-36.133,-33.691,-34.180,0.000,0
1644802520.834,-74.219,-36.133,-37.109,-28.809,0.000,0
1644802520.837,-83.984,-37.109,-37.109,-35.156,0.000,0
1644802520.841,-78.125,-34.180,-33.691,-41.504,0.000,0
1644802520.845,-56.641,-29.297,-29.785,-35.645,0.000,0
1644802520.849,-52.246,-30.762,-29.785,-27.832,0.000,0
1644802520.853,-63.477,-30.273,-31.738,-19.043,0.000,0
1644802520.857,-77.637,-33.691,-37.109,-25.391,0.000,0
1644802520.861,-73.242,-33.203,-42.969,-28.809,0.000,0
1644802520.864,-57.617,-33.203,-46.387,-28.320,0.000,0
1644802520.868,-59.082,-36.621,-43.945,-26.367,0.000,0
1644802520.872,-74.707,-36.133,-40.527,-29.785,0.000,0
1644802520.876,-83.496,-38.086,-43.945,-60.059,0.000,0
1644802520.880,-74.219,-36.133,-42.480,-63.965,0.000,0
1644802520.884,-61.035,-33.203,-43.945,-50.781,0.000,0
1644802520.888,-71.777,-28.809,-44.922,-49.316,0.000,0
1644802520.892,-76.172,-29.297,-40.527,-24.414,0.000,0
1644802520.896,-81.055,-39.062,-38.086,-23.926,0.000,0
1644802520.900,-84.961,-32.715,-35.156,-49.316,0.000,0
1644802520.904,-58.594,-25.879,-33.691,-42.480,0.000,0
1644802520.907,-49.805,-29.297,-36.133,-35.645,0.000,0
1644802520.911,-64.453,-29.297,-37.598,-25.879,0.000,0
1644802520.915,-89.355,-36.133,-42.480,-21.973,0.000,0
1644802520.919,-82.520,-38.086,-40.039,-36.133,0.000,0
1644802520.923,-50.781,-37.598,-29.785,-43.457,0.000,0
1644802520.927,-56.152,-41.504,-37.598,-31.738,0.000,0
1644802520.931,-73.730,-34.180,-40.527,-28.809,0.000,0
1644802520.935,-82.031,-29.297,-36.133,-28.809,0.000,0
1644802520.939,-74.707,-30.762,-35.156,-25.391,0.000,0
1644802520.943,-55.664,-26.855,-35.645,-41.016,0.000,0
1644802520.946,-55.664,-25.879,-38.574,-47.852,0.000,0
1644802520.950,-71.289,-25.391,-36.133,-35.156,0.000,0
1644802520.954,-73.242,-31.738,-36.133,-28.320,0.000,0
1644802520.958,-65.918,-36.621,-36.621,-36.133,0.000,0
1644802520.962,-51.758,-28.320,-31.738,-36.621,0.000,0
1644802520.966,-36.133,-24.414,-28.809,-26.367,0.000,0
1644802520.970,-52.734,-27.832,-28.809,-25.391,0.000,0
1644802520.974,-82.520,-32.715,-38.574,-31.738,0.000,0
1644802520.978,-81.543,-31.250,-39.551,-40.527,0.000,0
1644802520.982,-63.477,-28.809,-36.621,-45.410,0.000,0
1644802520.985,-45.898,-24.414,-39.062,-36.621,0.000,0
1644802520.989,-44.922,-18.555,-35.156,-25.879,0.000,0
1644802520.993,-69.824,-27.344,-34.180,-16.602,0.000,0
1644802520.997,-78.613,-37.598,-35.645,-21.484,0.000,0
1644802521.001,-55.176,-30.273,-35.645,-17.578,0.000,0
1644802521.005,-54.688,-21.973,-34.668,-20.508,0.000,0
1644802521.009,-62.012,-24.414,-33.691,-23.926,0.000,0
1644802521.012,-62.012,-28.809,-34.180,-17.578,0.000,0
1644802521.017,-75.195,-29.785,-36.133,-39.062,0.000,0
1644802521.020,-71.289,-24.902,-34.180,-47.852,0.000,0
1644802521.024,-49.316,-25.879,-30.762,-34.668,0.000,0
1644802521.028,-41.504,-33.691,-34.668,-31.250,0.000,0
1644802521.032,-74.219,-35.156,-37.109,-30.762,0.000,0
1644802521.036,-88.867,-35.156,-40.039,-26.855,0.000,0
1644802521.040,-64.453,-27.832,-39.551,-27.344,0.000,0
1644802521.044,-58.105,-26.855,-41.504,-18.066,0.000,0
1644802521.048,-71.289,-31.250,-41.992,-9.277,0.000,0
1644802521.051,-86.426,-25.879,-36.621,-18.555,0.000,0
1644802521.055,-92.285,-34.180,-38.086,-25.879,0.000,0
1644802521.059,-83.008,-39.062,-40.527,-42.969,0.000,0
1644802521.063,-66.406,-31.250,-34.668,-48.828,0.000,0
1644802521.067,-66.406,-35.156,-33.203,-37.109,0.000,0
1644802521.071,-81.055,-40.039,-38.574,-26.855,0.000,0
1644802521.075,-84.961,-41.016,-44.922,-22.461,0.000,0
1644802521.079,-77.148,-40.527,-47.852,-43.457,0.000,0
1644802521.083,-80.078,-34.180,-44.922,-52.246,0.000,0
1644802521.086,-79.102,-29.785,-36.621,-41.992,0.000,0
1644802521.090,-70.801,-36.621,-36.621,-31.250,0.000,0
1644802521.094,-90.820,-38.574,-43.457,-30.273,0.000,0
1644802521.098,-91.309,-31.250,-43.457,-36.621,0.000,0
1644802521.102,-68.359,-28.809,-37.598,-26.855,0.000,0
1644802521.106,-61.523,-25.879,-35.645,-25.879,0.000,0
1644802521.110,-66.895,-22.949,-38.574,-39.062,0.000,0
1644802521.114,-85.449,-26.855,-41.016,-43.457,0.000,0
1644802521.118,-87.402,-34.668,-42.969,-53.223,0.000,0
1644802521.121,-72.266,-29.297,-41.504,-56.152,0.000,0
1644802521.125,-69.824,-24.414,-41.504,-50.293,0.000,0
1644802521.129,-74.219,-29.297,-45.410,-34.180,0.000,0
1644802521.133,-76.172,-37.109,-40.527,-15.625,0.000,0
1644802521.137,-84.961,-40.527,-35.645,-20.508,0.000,0
1644802521.141,-75.195,-36.133,-34.180,-32.227,0.000,0
1644802521.145,-65.430,-34.180,-39.551,-25.391,0.000,0
1644802521.149,-77.148,-38.574,-43.945,-20.996,0.000,0
1644802521.152,-83.984,-40.527,-43.945,-33.203,0.000,0
1644802521.156,-82.520,-39.551,-39.062,-45.410,0.000,0
1644802521.160,-72.266,-39.062,-36.133,-46.875,0.000,0
1644802521.164,-60.547,-35.156,-38.574,-35.156,0.000,0
1644802521.168,-60.547,-32.715,-38.574,-29.785,0.000,0
1644802521.172,-72.266,-36.133,-42.969,-36.621,0.000,0
1644802521.176,-75.195,-34.668,-39.062,-41.016,0.000,0
1644802521.180,-65.918,-34.180,-33.203,-35.156,0.000,0
1644802521.184,-63.965,-33.691,-35.645,-27.832,0.000,0
1644802521.187,-62.988,-25.879,-37.109,-29.785,0.000,0
1644802521.191,-62.988,-23.438,-37.109,-25.391,0.000,0
1644802521.195,-62.988,-27.344,-38.574,-24.902,0.000,0
1644802521.199,-65.918,-26.855,-40.039,-45.898,0.000,0
1644802521.203,-72.266,-28.320,-40.527,-52.734,0.000,0
1644802521.207,-66.895,-37.109,-47.852,-38.574,0.000,0
1644802521.211,-82.031,-42.480,-52.734,-27.832,0.000,0
1644802521.215,-96.680,-38.574,-48.828,-37.109,0.000,0
1644802521.218,-77.637,-35.156,-40.039,-61.035,0.000,0
1644802521.222,-62.012,-36.133,-35.645,-47.363,0.000,0
1644802521.226,-60.547,-26.855,-37.109,-14.648,0.000,0
1644802521.230,-79.102,-22.949,-40.039,-21.973,0.000,0
1644802521.234,-99.609,-34.668,-43.945,-33.203,0.000,0
1644802521.238,-84.473,-34.180,-42.969,-32.227,0.000,0
1644802521.242,-62.988,-25.879,-33.203,-30.762,0.000,0
1644802521.246,-55.176,-22.461,-35.156,-32.715,0.000,0
1644802521.250,-57.129,-27.344,-44.922,-31.250,0.000,0
1644802521.254,-68.848,-34.180,-43.945,-22.461,0.000,0
1644802521.258,-68.359,-33.203,-43.945,-28.809,0.000,0
1644802521.261,-48.340,-25.879,-44.922,-36.133,0.000,0
1644802521.265,-41.504,-25.879,-41.016,-29.785,0.000,0
1644802521.269,-53.223,-28.809,-43.457,-31.738,0.000,0
1644802521.273,-73.730,-29.297,-48.828,-34.668,0.000,0
1644802521.277,-79.102,-30.273,-43.945,-36.621,0.000,0
1644802521.281,-69.336,-26.855,-31.250,-32.715,0.000,0
1644802521.285,-68.848,-27.832,-33.203,-23.438,0.000,0
1644802521.288,-72.266,-31.738,-39.551,-25.391,0.000,0
1644802521.292,-82.031,-33.691,-44.434,-25.391,0.000,0
1644802521.297,-82.031,-30.762,-42.969,-37.109,0.000,0
1644802521.300,-64.453,-27.832,-35.156,-52.246,0.000,0
1644802521.304,-53.223,-23.926,-33.691,-36.133,0.000,0
1644802521.308,-60.059,-21.973,-35.156,-28.809,0.000,0
1644802521.312,-75.684,-25.391,-38.086,-29.297,0.000,0
1644802521.316,-75.195,-33.203,-40.527,-29.785,0.000,0
1644802521.320,-55.176,-32.715,-37.598,-37.598,0.000,0
1644802521.324,-54.688,-27.832,-36.133,-43.945,0.000,0
1644802521.328,-63.965,-27.832,-36.621,-21.973,0.000,0
1644802521.331,-71.777,-32.227,-32.227,-10.254,0.000,0
1644802521.335,-88.379,-33.203,-34.180,-51.270,0.000,0
1644802521.339,-78.125,-32.227,-43.457,-65.430,0.000,0
1644802521.343,-56.641,-30.273,-45.410,-41.016,0.000,0
1644802521.347,-49.316,-26.367,-41.504,-31.250,0.000,0
1644802521.351,-71.289,-27.832,-41.504,-40.039,0.000,0
1644802521.355,-99.121,-31.738,-42.480,-37.109,0.000,0
1644802521.359,-87.402,-29.297,-38.086,-35.645,0.000,0
1644802521.363,-62.012,-18.555,-29.785,-41.992,0.000,0
1644802521.367,-55.176,-18.066,-31.250,-36.621,0.000,0
1644802521.370,-66.406,-26.855,-33.691,-31.738,0.000,0
1644802521.374,-76.172,-33.691,-35.156,-34.180,0.000,0
1644802521.378,-81.543,-30.273,-38.574,-46.875,0.000,0
1644802521.382,-85.449,-21.484,-38.574,-54.688,0.000,0
1644802521.386,-76.172,-19.043,-38.574,-41.504,0.000,0
1644802521.390,-72.754,-25.879,-45.898,-38.086,0.000,0
1644802521.394,-80.566,-28.320,-47.363,-45.898,0.000,0
1644802521.398,-80.078,-27.344,-43.945,-54.688,0.000,0
1644802521.402,-66.895,-27.344,-45.410,-34.668,0.000,0
1644802521.406,-52.246,-21.973,-43.945,-24.902,0.000,0
1644802521.409,-73.730,-25.391,-45.410,-39.062,0.000,0
1644802521.413,-91.309,-35.645,-46.875,-45.898,0.000,0
1644802521.417,-83.496,-34.180,-39.062,-46.387,0.000,0
1644802521.421,-71.289,-30.762,-37.598,-37.598,0.000,0
1644802521.425,-64.941,-24.414,-41.992,-41.016,0.000,0
1644802521.429,-73.730,-19.531,-41.992,-44.922,0.000,0
1644802521.433,-86.914,-26.855,-44.922,-42.480,0.000,0
1644802521.437,-93.262,-29.785,-43.945,-44.434,0.000,0
1644802521.441,-82.031,-26.367,-37.598,-46.875,0.000,0
1644802521.444,-70.312,-25.879,-37.109,-37.109,0.000,0
1644802521.448,-70.312,-26.367,-36.133,-28.809,0.000,0
1644802521.452,-76.660,-29.297,-37.598,-22.461,0.000,0
1644802521.456,-89.355,-33.203,-37.598,-22.461,0.000,0
1644802521.460,-85.938,-29.785,-34.668,-40.039,0.000,1
1644802521.464,-72.754,-32.227,-37.109,-30.273,0.000,0
1644802521.468,-75.684,-35.156,-41.992,-27.344,0.000,0
1644802521.472,-87.402,-30.273,-45.898,-44.922,0.000,0
1644802521.475,-83.008,-29.785,-41.016,-30.762,0.000,0
1644802521.479,-68.848,-28.809,-34.668,-22.949,0.000,0
1644802521.483,-65.430,-24.414,-32.715,-27.344,0.000,0
1644802521.487,-70.312,-25.879,-32.715,-16.602,0.000,0
1644802521.491,-83.008,-34.180,-37.109,-16.113,0.000,0
1644802521.495,-90.332,-36.621,-41.504,-30.762,0.000,0
1644802521.499,-81.055,-32.227,-37.109,-38.086,0.000,0
1644802521.503,-76.172,-30.273,-32.227,-29.297,0.000,0
1644802521.507,-80.078,-27.344,-33.691,-19.531,0.000,0
1644802521.510,-88.867,-30.762,-40.527,-20.508,0.000,0
1644802521.514,-101.562,-37.598,-42.969,-36.621,0.000,0
1644802521.518,-84.961,-35.645,-38.086,-53.711,0.000,0
1644802521.522,-65.918,-29.297,-35.156,-45.410,0.000,0
1644802521.526,-67.871,-25.391,-37.109,-26.855,0.000,0
1644802521.530,-74.219,-25.391,-36.621,-19.531,0.000,0
1644802521.534,-84.473,-30.762,-35.645,-15.137,0.000,0
1644802521.538,-77.637,-33.203,-33.691,-21.484,0.000,0
1644802521.542,-65.430,-30.762,-29.785,-31.738,0.000,0
1644802521.545,-70.801,-28.809,-33.691,-30.273,0.000,0
1644802521.549,-79.590,-29.297,-39.551,-35.156,0.000,0
1644802521.553,-76.172,-35.156,-40.039,-27.344,0.000,0
1644802521.557,-80.566,-38.086,-42.480,-37.598,0.000,0
1644802521.561,-77.637,-27.832,-39.551,-48.828,0.000,0
1644802521.565,-67.871,-24.414,-35.156,-37.109,0.000,0
1644802521.569,-72.266,-29.297,-39.551,-24.414,0.000,0
1644802521.573,-84.961,-31.738,-37.109,-14.648,0.000,0
1644802521.577,-86.914,-29.297,-35.156,-29.297,0.000,0
1644802521.580,-68.359,-29.297,-37.598,-41.016,0.000,0
1644802521.584,-50.781,-30.762,-33.691,-33.691,0.000,0
1644802521.588,-66.895,-29.297,-31.250,-37.109,0.000,0
1644802521.592,-94.727,-35.156,-31.738,-42.480,0.000,0
1644802521.596,-86.914,-41.016,-38.574,-38.574,0.000,0
1644802521.600,-61.035,-34.180,-40.527,-33.691,0.000,0
1644802521.604,-56.641,-24.902,-40.039,-40.039,0.000,0
1644802521.608,-62.988,-23.438,-44.922,-36.621,0.000,0
1644802521.611,-75.684,-31.250,-42.969,-30.273,0.000,0
1644802521.615,-83.008,-35.156,-38.086,-29.297,0.000,0
1644802521.619,-73.242,-26.855,-35.645,-39.062,0.000,0
1644802521.623,-59.570,-24.902,-36.621,-38.574,0.000,0
1644802521.627,-56.641,-26.855,-37.598,-26.367,0.000,0
1644802521.631,-73.242,-31.250,-36.133,-28.809,0.000,0
1644802521.635,-80.566,-32.227,-34.668,-36.621,0.000,0
1644802521.639,-61.523,-21.973,-36.133,-32.227,0.000,0
1644802521.643,-52.734,-20.508,-27.832,-19.043,0.000,0
1644802521.647,-60.547,-22.461,-26.855,-11.719,0.000,0
1644802521.650,-68.359,-27.344,-32.715,-14.648,0.000,0
1644802521.654,-82.520,-35.156,-33.691,-32.715,0.000,0
1644802521.658,-83.984,-31.250,-33.203,-41.992,0.000,0
1644802521.662,-69.336,-28.809,-38.086,-47.363,0.000,0
1644802521.666,-63.965,-28.809,-42.480,-38.086,0.000,0
1644802521.670,-65.430,-33.203,-41.504,-22.949,0.000,0
1644802521.674,-73.242,-33.691,-38.086,-26.367,0.000,0
1644802521.678,-78.613,-34.180,-38.574,-33.691,0.000,0
1644802521.682,-63.965,-34.668,-40.039,-27.344,0.000,0
1644802521.686,-56.152,-32.715,-35.156,-24.414,0.000,0
1644802521.690,-71.777,-35.156,-33.203,-18.555,0.000,0
1644802521.693,-75.684,-33.691,-33.691,-16.113,0.000,0
1644802521.697,-65.430,-28.320,-34.180,-36.621,0.000,0
1644802521.701,-57.129,-30.762,-34.180,-28.320,0.000,0
1644802521.705,-58.594,-33.203,-31.250,-14.648,0.000,0
1644802521.709,-65.430,-26.367,-37.598,-20.996,0.000,0
1644802521.713,-70.312,-26.367,-38.086,-19.043,0.000,0
1644802521.717,-70.312,-31.738,-32.227,-27.344,0.000,0
1644802521.721,-62.500,-28.809,-33.203,-33.203,0.000,0
1644802521.725,-61.035,-21.973,-33.691,-24.414,0.000,0
1644802521.729,-68.359,-26.367,-32.715,-4.883,0.000,0
1644802521.732,-83.008,-36.133,-36.621,-15.625,0.000,0
1644802521.736,-80.566,-37.598,-38.086,-38.086,0.000,0
1644802521.740,-62.500,-30.762,-33.203,-36.621,0.000,0
1644802521.744,-62.988,-28.809,-36.133,-35.156,0.000,0
1644802521.748,-61.523,-33.203,-38.086,-21.484,0.000,0
1644802521.752,-78.613,-35.156,-39.551,-33.203,0.000,0
1644802521.756,-87.891,-29.297,-39.062,-55.176,0.000,0
1644802521.759,-60.059,-25.391,-37.598,-52.734,0.000,0
1644802521.764,-53.223,-21.484,-37.109,-36.133,0.000,0
1644802521.768,-76.660,-22.461,-38.086,-28.320,0.000,0
1644802521.771,-87.402,-32.227,-41.504,-32.227,0.000,0
1644802521.775,-89.355,-37.598,-39.062,-27.832,0.000,0
1644802521.779,-75.684,-28.320,-33.203,-28.320,0.000,0
1644802521.783,-57.617,-22.461,-31.250,-31.738,0.000,0
1644802521.787,-63.965,-22.461,-33.691,-38.574,0.000,0
1644802521.791,-78.125,-25.879,-41.016,-32.227,0.000,0
1644802521.795,-88.379,-33.203,-44.922,-31.738,0.000,0
1644802521.799,-78.125,-26.855,-37.109,-33.203,0.000,0
1644802521.802,-61.035,-20.020,-32.227,-20.508,0.000,0
1644802521.806,-59.570,-26.855,-39.062,-12.695,0.000,0
1644802521.810,-81.543,-41.016,-47.363,-25.391,0.000,0
1644802521.814,-105.957,-43.457,-47.852,-46.387,0.000,0
1644802521.818,-83.008,-38.086,-41.016,-34.668,0.000,0
1644802521.822,-68.359,-33.203,-40.039,-30.762,0.000,0
1644802521.826,-73.242,-29.785,-39.062,-38.086,0.000,0
1644802521.830,-71.289,-30.273,-38.086,-30.273,0.000,0
1644802521.834,-83.008,-30.273,-37.598,-26.855,0.000,0
1644802521.837,-77.148,-33.691,-33.691,-20.508,0.000,0
1644802521.841,-67.383,-32.715,-28.809,-18.555,0.000,0
1644802521.845,-69.336,-23.438,-33.691,-25.879,0.000,0
1644802521.849,-70.312,-23.926,-42.969,-31.250,0.000,0
1644802521.853,-96.191,-35.645,-49.316,-32.227,0.000,0
1644802521.857,-99.121,-37.598,-43.457,-32.715,0.000,0
1644802521.861,-74.707,-31.738,-39.551,-35.156,0.000,0
1644802521.865,-57.129,-27.832,-39.551,-28.809,0.000,0
1644802521.869,-66.895,-24.414,-42.480,-19.043,0.000,0
1644802521.873,-90.332,-28.320,-44.434,-32.227,0.000,0
1644802521.876,-81.055,-31.250,-41.504,-43.457,0.000,0
1644802521.880,-61.523,-32.715,-40.039,-36.621,0.000,0
1644802521.884,-58.594,-30.762,-39.062,-27.832,0.000,0
1644802521.888,-71.777,-25.879,-39.551,-26.367,0.000,0
1644802521.892,-82.031,-30.762,-41.016,-30.273,0.000,0
1644802521.896,-73.242,-32.227,-34.180,-20.508,0.000,0
1644802521.900,-66.406,-23.438,-30.273,-15.137,0.000,0
1644802521.904,-62.500,-19.531,-33.203,-22.949,0.000,0
1644802521.908,-67.383,-27.832,-40.039,-19.043,0.000,0
1644802521.911,-74.707,-33.691,-45.410,-24.414,0.000,0
1644802521.915,-77.148,-31.250,-43.457,-37.598,0.000,0
1644802521.919,-67.383,-27.344,-40.527,-32.715,0.000,0
1644802521.923,-58.105,-24.902,-40.527,-19.531,0.000,0
1644802521.927,-63.965,-29.297,-42.969,-7.812,0.000,0
1644802521.931,-73.242,-32.227,-39.551,-13.184,0.000,0
1644802521.935,-76.660,-26.855,-36.133,-38.086,0.000,0
1644802521.939,-63.965,-26.855,-34.180,-43.945,0.000,0
1644802521.942,-46.875,-26.855,-35.645,-39.551,0.000,0
1644802521.946,-55.664,-23.926,-40.527,-43.457,0.000,0
1644802521.950,-67.871,-21.973,-37.109,-32.715,0.000,0
1644802521.954,-72.754,-22.461,-41.504,-35.156,0.000,0
1644802521.958,-68.359,-23.926,-39.551,-39.551,0.000,0
1644802521.962,-50.781,-23.926,-30.762,-17.578,0.000,0
1644802521.966,-50.781,-24.414,-34.668,-18.555,0.000,0
1644802521.970,-66.406,-34.180,-42.969,-41.504,0.000,0
1644802521.974,-85.938,-41.016,-41.992,-46.875,0.000,0
1644802521.977,-86.426,-32.227,-35.645,-41.504,0.000,0
1644802521.981,-63.477,-30.273,-32.715,-32.715,0.000,0
1644802521.985,-56.641,-36.133,-34.668,-22.949,0.000,0
1644802521.989,-71.777,-32.715,-35.156,-23.438,0.000,0
1644802521.993,-82.520,-30.273,-32.715,-24.414,0.000,0
1644802521.997,-78.613,-29.297,-27.832,-22.949,0.000,0
1644802522.001,-66.406,-29.297,-34.180,-24.414,0.000,0
1644802522.005,-55.664,-27.344,-43.945,-20.508,0.000,0
1644802522.009,-67.871,-24.902,-42.480,-18.066,0.000,0
1644802522.013,-86.426,-26.855,-39.551,-22.949,0.000,0
1644802522.017,-74.707,-24.902,-41.016,-30.762,0.000,0
1644802522.020,-59.082,-25.391,-45.410,-42.969,0.000,0
1644802522.024,-47.852,-19.043,-43.945,-29.297,0.000,0
1644802522.028,-53.711,-20.508,-35.645,-14.160,0.000,0
1644802522.032,-81.543,-35.156,-34.180,-27.344,0.000,0
1644802522.036,-78.125,-32.227,-35.645,-39.062,0.000,0
1644802522.040,-57.617,-23.926,-33.691,-31.738,0.000,0
