timestamps,TP9,AF7,AF8,TP10,Right AUX, Marker
1644798352.376,-105.469,150.391,-53.223,-44.434,0.000,0
1644798352.380,-103.027,-702.637,-74.219,-59.082,0.000,0
1644798352.384,-109.863,-1000.000,-78.125,-79.590,0.000,0
1644798352.388,-108.398,-791.016,-59.570,-108.887,0.000,0
1644798352.392,-95.215,126.465,-47.852,-105.469,0.000,0
1644798352.396,-80.566,103.027,-72.266,-82.520,0.000,0
1644798352.400,-86.914,-794.434,-90.820,-61.523,0.000,0
1644798352.404,-107.422,-1000.000,-79.590,-63.965,0.000,0
1644798352.408,-120.117,-849.121,-58.594,-103.027,0.000,0
1644798352.412,-113.281,42.480,-53.711,-111.816,0.000,0
1644798352.416,-93.262,430.664,-57.617,-80.566,0.000,0
1644798352.420,-86.914,-541.992,-75.684,-47.363,0.000,0
1644798352.430,-100.098,-1000.000,-76.660,-57.617,0.000,0
1644798352.434,-112.793,-876.953,-56.641,-106.934,0.000,0
1644798352.438,-108.398,-53.223,-47.363,-97.168,0.000,0
1644798352.442,-100.098,555.664,-50.293,-70.801,0.000,0
1644798352.447,-100.098,-194.824,-64.453,-57.617,0.000,0
1644798352.451,-102.539,-960.449,-77.148,-53.223,0.000,0
1644798352.455,-112.305,-1000.000,-62.500,-88.379,0.000,0
1644798352.459,-108.398,-462.402,-33.691,-111.816,0.000,0
1644798352.464,-92.285,384.277,-35.156,-101.562,0.000,0
1644798352.468,-98.633,-134.766,-59.082,-70.312,0.000,0
1644798352.472,-111.816,-978.516,-75.195,-55.664,0.000,0
1644798352.476,-120.605,-1000.000,-67.871,-96.191,0.000,0
1644798352.491,-122.559,-264.160,-50.781,-118.652,0.000,0
1644798352.496,-107.910,569.336,-52.246,-101.562,0.000,0
1644798352.500,-97.656,134.277,-64.941,-72.754,0.000,0
1644798352.505,-106.445,-717.773,-71.289,-49.316,0.000,0
1644798352.510,-121.094,-1000.000,-62.988,-62.988,0.000,0
1644798352.514,-117.188,-604.980,-50.781,-90.820,0.000,0
1644798352.519,-98.633,-92.773,-57.129,-77.637,0.000,0
1644798352.523,-95.215,-238.281,-62.988,-50.781,0.000,0
1644798352.528,-109.863,-676.758,-73.242,-62.500,0.000,0
1644798352.532,-124.023,-1000.000,-78.125,-99.609,0.000,0
1644798352.537,-118.164,-526.367,-53.223,-110.352,0.000,0
1644798352.541,-95.215,494.141,-43.945,-86.426,0.000,0
1644798352.560,-98.145,194.824,-61.523,-62.500,0.000,0
1644798352.565,-109.375,-756.836,-73.242,-59.082,0.000,0
1644798352.569,-119.141,-1000.000,-68.848,-86.426,0.000,0
1644798352.574,-126.953,-633.301,-47.852,-114.746,0.000,0
1644798352.579,-110.352,391.602,-38.574,-102.051,0.000,0
1644798352.584,-90.820,243.652,-56.641,-65.430,0.000,0
1644798352.589,-95.703,-704.590,-70.312,-47.852,0.000,0
1644798352.593,-119.141,-1000.000,-77.148,-72.266,0.000,0
1644798352.598,-117.188,-712.891,-55.176,-104.980,0.000,0
1644798352.603,-98.145,279.785,-36.133,-107.422,0.000,0
1644798352.608,-99.121,489.746,-58.594,-85.938,0.000,0
1644798352.613,-100.098,-486.328,-74.707,-65.430,0.000,0
1644798352.632,-104.492,-992.676,-70.312,-71.289,0.000,0
1644798352.637,-110.840,-997.070,-61.035,-95.215,0.000,0
1644798352.642,-113.281,-784.180,-57.617,-94.238,0.000,0
1644798352.647,-105.469,-103.027,-56.641,-80.078,0.000,0
1644798352.653,-103.027,-424.316,-67.383,-63.477,0.000,0
1644798352.658,-122.070,-1000.000,-69.824,-56.152,0.000,0
1644798352.663,-121.094,-854.492,-38.086,-85.449,0.000,0
1644798352.668,-106.934,19.043,-26.855,-113.281,0.000,0
1644798352.673,-97.656,550.293,-46.387,-92.773,0.000,0
1644798352.678,-84.473,-20.996,-55.176,-61.035,0.000,0
1644798352.683,-97.168,-852.539,-61.523,-59.570,0.000,0
1644798352.688,-115.723,-908.691,-51.758,-96.191,0.000,0
1644798352.707,-106.445,27.344,-33.691,-102.539,0.000,0
1644798352.713,-98.633,729.492,-43.945,-73.730,0.000,0
1644798352.718,-99.121,173.828,-64.941,-52.734,0.000,0
1644798352.723,-109.375,-768.555,-73.242,-45.898,0.000,0
1644798352.728,-115.234,-974.121,-55.664,-79.102,0.000,0
1644798352.734,-110.352,-334.473,-38.574,-94.238,0.000,0
1644798352.739,-100.098,309.082,-50.293,-76.660,0.000,0
1644798352.744,-94.727,-207.031,-65.918,-55.664,0.000,0
1644798352.750,-104.492,-944.824,-81.055,-47.363,0.000,0
1644798352.755,-109.375,-1000.000,-80.078,-73.242,0.000,0
1644798352.760,-106.934,-450.684,-41.992,-102.051,0.000,0
1644798352.765,-87.402,593.262,-35.645,-85.938,0.000,0
1644798352.784,-84.473,451.660,-57.617,-67.871,0.000,0
1644798352.789,-109.375,-526.855,-70.801,-57.129,0.000,0
1644798352.795,-125.000,-1000.000,-73.242,-70.312,0.000,0
1644798352.800,-127.930,-426.270,-53.711,-104.004,0.000,0
1644798352.806,-106.934,585.449,-50.293,-92.773,0.000,0
1644798352.811,-80.078,246.094,-68.359,-69.824,0.000,0
1644798352.817,-94.238,-725.098,-74.707,-46.875,0.000,0
1644798352.822,-120.605,-1000.000,-68.848,-59.570,0.000,0
1644798352.827,-113.281,-554.199,-54.688,-99.121,0.000,0
1644798352.833,-92.773,345.703,-48.828,-85.449,0.000,0
1644798352.838,-83.984,318.359,-56.152,-54.688,0.000,0
1644798352.844,-103.027,-442.871,-68.359,-57.129,0.000,0
1644798352.854,-115.723,-1000.000,-70.801,-65.918,0.000,0
1644798352.859,-114.746,-721.191,-50.293,-85.449,0.000,0
1644798352.865,-105.957,346.680,-43.457,-82.031,0.000,0
1644798352.870,-104.492,480.957,-60.547,-64.453,0.000,0
1644798352.876,-112.305,-615.723,-77.637,-47.852,0.000,0
1644798352.881,-114.746,-1000.000,-72.754,-59.082,0.000,0
1644798352.887,-125.977,-869.629,-52.246,-105.957,0.000,0
1644798352.892,-128.906,-170.898,-41.992,-110.352,0.000,0
1644798352.898,-133.789,418.457,-47.852,-91.309,0.000,0
1644798352.903,-149.414,-170.898,-62.988,-65.430,0.000,0
1644798352.908,-155.273,-971.191,-72.754,-66.895,0.000,0
1644798352.914,-168.457,-795.898,-54.688,-101.562,0.000,0
1644798352.917,-177.734,97.656,-43.457,-102.539,0.000,0
1644798352.922,-167.480,524.414,-61.523,-73.242,0.000,0
1644798352.928,-157.715,-65.918,-73.730,-62.988,0.000,0
1644798352.933,-165.039,-884.277,-76.660,-69.824,0.000,0
1644798352.939,-181.152,-918.457,-57.617,-99.121,0.000,0
1644798352.944,-170.898,-195.801,-36.621,-110.840,0.000,0
1644798352.949,-157.227,286.133,-48.828,-101.074,0.000,0
1644798352.955,-163.574,-157.715,-68.848,-74.707,0.000,0
1644798352.960,-172.363,-818.359,-71.777,-58.594,0.000,0
1644798352.966,-171.875,-1000.000,-55.664,-92.773,0.000,0
1644798352.971,-166.016,-96.680,-29.297,-105.469,0.000,0
1644798352.977,-146.484,137.695,-47.852,-65.918,0.000,0
1644798352.974,-145.996,-706.055,-63.965,-57.129,0.000,0
1644798352.979,-166.504,-870.117,-60.547,-61.523,0.000,0
1644798352.984,-169.922,-997.070,-55.664,-84.473,0.000,0
1644798352.990,-176.270,-452.637,-41.016,-118.164,0.000,0
1644798352.995,-172.363,420.898,-48.340,-91.797,0.000,0
1644798353.000,-157.227,93.750,-63.477,-69.824,0.000,0
1644798353.006,-153.320,-784.180,-69.336,-62.988,0.000,0
1644798353.011,-172.363,-1000.000,-57.617,-71.777,0.000,0
1644798353.017,-181.641,-450.195,-31.250,-89.355,0.000,0
1644798353.022,-166.992,607.422,-38.574,-82.031,0.000,0
1644798353.027,-156.250,488.281,-63.477,-62.012,0.000,0
1644798353.033,-156.738,-468.750,-68.848,-49.805,0.000,0
1644798353.025,-162.109,-1000.000,-68.359,-91.309,0.000,0
1644798353.030,-170.410,-538.574,-53.223,-116.699,0.000,0
1644798353.035,-163.086,586.914,-44.922,-88.379,0.000,0
1644798353.041,-140.137,619.629,-59.082,-75.684,0.000,0
1644798353.046,-138.184,-406.738,-74.707,-65.918,0.000,0
1644798353.051,-161.621,-972.168,-69.336,-65.430,0.000,0
1644798353.057,-167.480,-1000.000,-63.965,-90.820,0.000,0
1644798353.062,-147.461,-590.820,-48.828,-92.285,0.000,0
1644798353.067,-149.414,250.488,-42.480,-91.309,0.000,0
1644798353.072,-148.438,-285.645,-58.594,-73.730,0.000,0
1644798353.078,-146.973,-1000.000,-58.105,-76.172,0.000,0
1644798353.083,-152.832,-724.121,-51.270,-114.746,0.000,0
1644798353.072,-147.949,347.656,-41.016,-107.910,0.000,0
1644798353.077,-133.301,726.074,-39.062,-78.613,0.000,0
1644798353.082,-129.395,-89.844,-54.688,-57.617,0.000,0
1644798353.087,-144.531,-941.895,-62.012,-62.500,0.000,0
1644798353.092,-145.996,-796.387,-43.945,-103.027,0.000,0
1644798353.097,-142.578,56.641,-35.645,-106.445,0.000,0
1644798353.103,-138.672,338.867,-49.805,-71.289,0.000,0
1644798353.108,-123.047,-375.488,-55.664,-53.223,0.000,0
1644798353.113,-134.766,-975.586,-59.570,-60.547,0.000,0
1644798353.118,-152.832,-951.172,-53.223,-100.586,0.000,0
1644798353.123,-141.602,-172.363,-38.086,-120.605,0.000,0
1644798353.128,-134.277,630.859,-41.992,-93.262,0.000,0
1644798353.114,-135.254,145.508,-52.734,-65.430,0.000,0
1644798353.119,-135.742,-757.324,-67.871,-44.434,0.000,0
1644798353.124,-135.742,-1000.000,-62.988,-67.383,0.000,0
1644798353.129,-139.160,-271.484,-36.133,-108.398,0.000,0
1644798353.134,-124.512,651.855,-38.086,-88.867,0.000,0
1644798353.139,-120.117,29.297,-50.781,-56.641,0.000,0
1644798353.144,-144.531,-903.320,-60.059,-45.410,0.000,0
1644798353.149,-139.160,-982.422,-54.199,-71.289,0.000,0
1644798353.154,-128.906,-166.504,-36.133,-97.168,0.000,0
1644798353.159,-116.699,774.414,-37.598,-85.938,0.000,0
1644798353.164,-108.887,402.832,-57.617,-64.453,0.000,0
1644798353.169,-119.629,-612.305,-63.965,-49.805,0.000,0
1644798353.153,-130.371,-1000.000,-57.617,-66.895,0.000,0
1644798353.158,-137.695,-509.277,-43.945,-105.469,0.000,0
1644798353.163,-127.441,570.312,-35.156,-102.051,0.000,0
1644798353.168,-115.234,491.211,-53.711,-83.984,0.000,0
1644798353.173,-117.676,-488.770,-66.895,-73.242,0.000,0
1644798353.178,-134.277,-1000.000,-64.941,-75.195,0.000,0
1644798353.182,-144.531,-721.680,-50.293,-104.004,0.000,0
1644798353.187,-137.695,149.414,-45.410,-100.586,0.000,0
1644798353.192,-112.793,51.270,-63.965,-68.848,0.000,0
1644798353.197,-105.957,-825.195,-76.660,-44.434,0.000,0
1644798353.202,-129.395,-1000.000,-71.777,-71.777,0.000,0
1644798353.207,-141.602,-562.988,-50.781,-106.445,0.000,0
1644798353.189,-118.652,231.934,-37.109,-85.449,0.000,0
1644798353.194,-98.633,-343.262,-56.152,-58.594,0.000,0
1644798353.198,-109.863,-895.508,-62.012,-53.223,0.000,0
1644798353.203,-122.070,-914.062,-60.059,-71.777,0.000,0
1644798353.208,-118.164,-1000.000,-53.223,-93.262,0.000,0
1644798353.213,-100.586,-676.270,-41.992,-78.125,0.000,0
1644798353.218,-103.516,110.840,-40.039,-59.570,0.000,0
1644798353.222,-109.375,-210.449,-56.152,-50.781,0.000,0
1644798353.227,-103.027,-1000.000,-74.707,-41.016,0.000,0
1644798353.232,-120.117,-860.352,-52.734,-62.500,0.000,0
1644798353.237,-130.371,216.797,-29.785,-103.516,0.000,0
1644798353.241,-115.723,778.320,-43.457,-86.426,0.000,0
1644798353.222,-109.863,-280.273,-68.848,-43.457,0.000,0
1644798353.227,-112.793,-1000.000,-72.266,-40.039,0.000,0
1644798353.231,-125.977,-800.293,-44.434,-82.520,0.000,0
1644798353.236,-127.441,251.953,-33.203,-100.586,0.000,0
1644798353.241,-106.445,152.832,-56.641,-74.219,0.000,0
1644798353.245,-98.633,-851.562,-71.777,-44.434,0.000,0
1644798353.250,-106.934,-969.238,-65.918,-46.387,0.000,0
1644798353.255,-115.723,-952.148,-52.246,-71.289,0.000,0
1644798353.259,-117.676,-822.266,-43.945,-80.566,0.000,0
1644798353.264,-108.887,103.516,-39.062,-63.965,0.000,0
1644798353.269,-107.422,370.605,-43.945,-53.711,0.000,0
1644798353.273,-106.445,-608.398,-67.383,-36.621,0.000,0
1644798353.256,-109.375,-1000.000,-64.941,-52.734,0.000,0
1644798353.260,-120.605,-193.359,-34.180,-96.680,0.000,0
1644798353.265,-113.770,959.961,-30.273,-87.402,0.000,0
1644798353.269,-100.098,226.562,-48.828,-41.504,0.000,0
1644798353.274,-104.004,-948.730,-58.594,-25.391,0.000,0
1644798353.279,-119.141,-1000.000,-43.945,-74.707,0.000,0
1644798353.283,-119.141,-364.258,-26.855,-109.863,0.000,0
1644798353.288,-106.445,230.957,-37.109,-80.078,0.000,0
1644798353.292,-106.445,-300.293,-51.758,-59.082,0.000,0
1644798353.297,-107.910,-653.320,-56.152,-48.340,0.000,0
1644798353.301,-114.746,-1000.000,-61.523,-69.336,0.000,0
1644798353.306,-127.930,-592.285,-44.434,-116.211,0.000,0
1644798353.290,-115.234,604.004,-41.504,-98.145,0.000,0
1644798353.295,-105.957,764.160,-57.129,-76.660,0.000,0
1644798353.299,-108.398,-265.137,-74.707,-67.383,0.000,0
1644798353.304,-116.211,-1000.000,-73.730,-71.777,0.000,0
1644798353.308,-121.094,-509.766,-42.969,-104.004,0.000,0
1644798353.313,-114.258,546.875,-35.156,-96.191,0.000,0
1644798353.317,-107.910,389.648,-53.223,-62.012,0.000,0
1644798353.321,-109.863,-679.688,-74.707,-37.109,0.000,0
1644798353.326,-131.348,-1000.000,-66.406,-55.176,0.000,1
1644798353.330,-140.625,-547.852,-39.062,-89.355,0.000,0
1644798353.335,-129.395,440.430,-38.574,-73.730,0.000,0
1644798353.339,-106.934,581.055,-58.105,-55.176,0.000,0
1644798353.325,-97.168,-182.617,-69.824,-42.969,0.000,0
1644798353.330,-104.492,-948.730,-68.848,-45.410,0.000,0
1644798353.334,-120.117,-895.020,-51.270,-86.914,0.000,0
1644798353.338,-118.164,210.938,-34.180,-94.727,0.000,0
1644798353.343,-107.422,864.746,-46.387,-75.195,0.000,0
1644798353.347,-102.539,-71.289,-60.059,-47.852,0.000,0
1644798353.352,-107.910,-994.629,-65.918,-28.809,0.000,0
1644798353.356,-118.164,-827.637,-42.969,-66.895,0.000,0
1644798353.360,-115.234,258.789,-16.113,-101.074,0.000,0
1644798353.365,-104.004,846.680,-38.574,-73.242,0.000,0
1644798353.369,-96.680,44.434,-61.035,-44.922,0.000,0
1644798353.373,-105.957,-861.816,-65.918,-57.617,0.000,0
1644798353.361,-121.582,-846.191,-49.316,-94.238,0.000,0
1644798353.365,-122.070,88.867,-26.855,-104.004,0.000,0
1644798353.370,-112.305,681.152,-32.715,-81.055,0.000,0
1644798353.374,-107.910,167.969,-55.664,-59.082,0.000,0
1644798353.378,-117.188,-734.863,-71.777,-55.176,0.000,0
1644798353.382,-129.395,-1000.000,-59.082,-76.660,0.000,0
1644798353.387,-119.141,-832.520,-41.016,-87.891,0.000,0
1644798353.391,-117.676,63.477,-39.062,-84.961,0.000,0
1644798353.395,-126.465,381.348,-50.293,-71.289,0.000,0
1644798353.400,-127.441,-560.059,-71.777,-51.270,0.000,0
1644798353.404,-128.906,-1000.000,-70.312,-86.426,0.000,0
1644798353.408,-122.559,-182.129,-41.016,-125.488,0.000,0
1644798353.397,-107.422,840.332,-33.691,-107.910,0.000,0
1644798353.401,-110.352,365.234,-53.223,-69.824,0.000,0
1644798353.406,-117.676,-650.391,-62.988,-51.758,0.000,0
1644798353.410,-122.559,-1000.000,-58.594,-84.961,0.000,0
1644798353.414,-120.605,-326.172,-41.992,-112.793,0.000,0
1644798353.418,-98.633,307.129,-44.434,-77.148,0.000,0
1644798353.423,-91.797,-98.145,-50.781,-50.781,0.000,0
1644798353.427,-113.281,-627.930,-55.664,-62.012,0.000,0
1644798353.431,-128.906,-1000.000,-55.664,-81.543,0.000,0
1644798353.435,-119.629,-881.348,-46.387,-102.539,0.000,0
1644798353.440,-96.191,144.043,-40.039,-96.680,0.000,0
1644798353.444,-99.609,646.484,-44.922,-76.660,0.000,0
1644798353.437,-109.863,-268.555,-62.988,-57.129,0.000,0
1644798353.441,-113.770,-1000.000,-59.570,-70.312,0.000,0
1644798353.445,-122.559,-630.859,-32.715,-100.586,0.000,0
1644798353.449,-108.887,526.367,-23.926,-104.980,0.000,0
1644798353.453,-95.215,604.980,-41.504,-63.965,0.000,0
1644798353.458,-97.656,-523.438,-64.453,-28.809,0.000,0
1644798353.462,-111.816,-1000.000,-68.359,-59.082,0.000,0
1644798353.466,-118.164,-787.109,-41.016,-89.844,0.000,0
1644798353.470,-106.934,64.941,-36.133,-90.332,0.000,0
1644798353.474,-85.449,140.137,-51.270,-65.430,0.000,0
1644798353.479,-91.797,-544.922,-58.105,-50.293,0.000,0
1644798353.483,-113.281,-968.750,-74.707,-64.453,0.000,0
1644798353.475,-125.977,-988.770,-62.988,-89.844,0.000,0
1644798353.479,-123.047,-72.266,-40.039,-99.609,0.000,0
1644798353.484,-104.004,783.203,-45.410,-90.332,0.000,0
1644798353.488,-99.121,197.266,-64.453,-74.219,0.000,0
1644798353.492,-107.910,-745.605,-81.543,-61.035,0.000,0
1644798353.496,-114.258,-1000.000,-63.965,-82.031,0.000,0
1644798353.500,-122.070,-230.957,-37.109,-107.910,0.000,0
1644798353.504,-107.422,681.641,-42.480,-82.520,0.000,0
1644798353.508,-87.891,-17.578,-55.176,-45.410,0.000,0
1644798353.513,-109.375,-962.402,-59.570,-44.922,0.000,0
1644798353.517,-128.418,-968.262,-51.758,-82.031,0.000,0
1644798353.521,-125.488,-16.602,-35.645,-103.516,0.000,0
1644798353.514,-100.098,224.609,-47.363,-77.637,0.000,0
1644798353.518,-94.238,-485.840,-57.129,-50.781,0.000,0
1644798353.522,-109.375,-721.680,-59.570,-42.969,0.000,0
1644798353.527,-118.652,-1000.000,-62.988,-66.406,0.000,0
1644798353.531,-122.559,-524.902,-40.039,-96.191,0.000,0
1644798353.535,-114.258,454.590,-39.062,-81.543,0.000,0
1644798353.539,-112.305,152.832,-57.129,-59.570,0.000,0
1644798353.543,-106.934,-714.844,-70.801,-42.480,0.000,0
1644798353.547,-105.469,-1000.000,-70.312,-68.359,0.000,0
1644798353.551,-122.559,-441.406,-41.992,-108.398,0.000,0
1644798353.555,-125.977,683.105,-35.156,-95.215,0.000,0
1644798353.559,-119.141,415.527,-56.641,-73.242,0.000,0
1644798353.553,-118.164,-616.211,-67.871,-62.012,0.000,0
1644798353.558,-128.906,-1000.000,-62.988,-70.312,0.000,0
1644798353.562,-141.602,-487.305,-50.293,-97.168,0.000,0
1644798353.566,-117.676,395.996,-48.340,-83.984,0.000,0
1644798353.570,-98.145,246.582,-63.477,-62.012,0.000,0
1644798353.574,-115.723,-580.566,-79.102,-48.340,0.000,0
1644798353.578,-130.859,-981.445,-74.707,-53.223,0.000,0
1644798353.582,-117.676,-1000.000,-50.293,-82.031,0.000,0
1644798353.586,-100.586,-330.078,-34.668,-89.844,0.000,0
1644798353.590,-105.957,601.562,-38.574,-74.219,0.000,0
1644798353.594,-122.559,-121.582,-61.523,-51.270,0.000,0
1644798353.598,-121.582,-1000.000,-70.801,-61.035,0.000,0
1644798353.593,-121.582,-710.938,-47.852,-98.145,0.000,0
1644798353.597,-116.699,446.289,-38.574,-104.980,0.000,0
1644798353.601,-94.238,773.438,-53.711,-72.754,0.000,0
1644798353.605,-94.727,-142.090,-68.848,-39.551,0.000,0
1644798353.609,-116.211,-916.992,-72.266,-55.176,0.000,0
1644798353.613,-121.582,-880.371,-56.641,-88.867,0.000,0
1644798353.617,-101.562,-59.570,-46.387,-78.613,0.000,0
1644798353.622,-95.215,43.457,-51.758,-55.176,0.000,0
1644798353.626,-107.422,-525.879,-54.199,-41.992,0.000,0
1644798353.630,-124.023,-835.938,-60.547,-52.734,0.000,0
1644798353.634,-136.230,-1000.000,-54.688,-84.473,0.000,0
1644798353.638,-125.977,-180.176,-27.344,-96.680,0.000,0
1644798353.633,-119.141,795.898,-34.668,-92.285,0.000,0
1644798353.637,-117.188,392.578,-62.500,-83.496,0.000,0
1644798353.641,-122.559,-649.902,-77.637,-70.312,0.000,0
1644798353.645,-134.277,-946.289,-65.430,-81.543,0.000,0
1644798353.649,-113.770,-22.949,-41.992,-104.492,0.000,0
1644798353.653,-94.238,683.594,-38.086,-86.914,0.000,0
1644798353.657,-107.910,-135.254,-63.965,-52.246,0.000,0
1644798353.661,-114.258,-1000.000,-81.055,-50.293,0.000,0
1644798353.665,-128.906,-963.379,-61.523,-93.750,0.000,0
1644798353.669,-126.465,-215.820,-39.551,-110.840,0.000,0
1644798353.673,-111.816,515.137,-35.156,-86.426,0.000,0
1644798353.677,-116.211,348.145,-50.781,-70.801,0.000,0
1644798353.673,-115.723,-423.340,-58.105,-59.082,0.000,0
1644798353.677,-119.629,-1000.000,-56.641,-74.707,0.000,0
1644798353.681,-110.840,-604.492,-38.086,-95.703,0.000,0
1644798353.685,-92.773,580.078,-25.391,-78.125,0.000,0
1644798353.689,-104.492,617.188,-51.758,-65.918,0.000,0
1644798353.693,-109.375,-489.746,-75.195,-55.176,0.000,0
1644798353.697,-109.375,-1000.000,-70.312,-56.152,0.000,0
1644798353.701,-122.559,-689.453,-41.504,-89.844,0.000,0
1644798353.705,-110.352,474.609,-30.273,-100.586,0.000,0
1644798353.709,-97.656,567.871,-46.875,-78.125,0.000,0
1644798353.713,-109.863,-498.535,-59.082,-56.152,0.000,0
1644798353.717,-128.906,-1000.000,-63.965,-74.219,0.000,0
1644798353.714,-127.930,-607.422,-48.828,-110.840,0.000,0
1644798353.718,-116.211,210.449,-42.480,-103.516,0.000,0
1644798353.722,-108.887,426.758,-52.734,-73.730,0.000,0
1644798353.726,-107.910,-166.016,-58.105,-57.129,0.000,0
1644798353.730,-120.117,-910.645,-58.594,-65.918,0.000,0
1644798353.734,-124.512,-1000.000,-48.340,-96.680,0.000,0
1644798353.738,-110.352,-210.449,-35.645,-99.121,0.000,0
1644798353.742,-110.840,564.453,-40.527,-81.055,0.000,0
1644798353.746,-114.746,-40.039,-57.129,-62.988,0.000,0
1644798353.750,-113.281,-932.129,-65.918,-60.059,0.000,0
1644798353.754,-110.840,-870.605,-45.898,-99.121,0.000,0
1644798353.758,-120.605,196.777,-28.320,-116.211,0.000,0
1644798353.756,-115.723,765.625,-44.922,-76.660,0.000,0
1644798353.760,-101.074,-260.742,-64.453,-47.852,0.000,0
1644798353.764,-104.004,-1000.000,-67.383,-53.223,0.000,0
1644798353.768,-124.023,-859.375,-53.711,-87.402,0.000,0
1644798353.772,-125.488,-153.809,-39.062,-94.727,0.000,0
1644798353.775,-102.051,258.789,-39.551,-71.777,0.000,0
1644798353.779,-103.516,-277.344,-58.594,-55.176,0.000,0
1644798353.783,-125.488,-879.883,-75.684,-51.270,0.000,0
1644798353.787,-130.371,-1000.000,-57.617,-80.566,0.000,0
1644798353.791,-118.164,-627.441,-33.203,-98.145,0.000,0
1644798353.795,-120.117,486.328,-30.273,-74.707,0.000,0
1644798353.799,-112.793,446.777,-46.387,-43.457,0.000,0
1644798353.798,-105.469,-576.660,-72.266,-46.875,0.000,0
1644798353.802,-123.047,-1000.000,-65.430,-81.543,0.000,0
1644798353.806,-134.766,-202.148,-39.062,-101.562,0.000,0
1644798353.810,-120.605,835.449,-43.945,-83.496,0.000,0
1644798353.813,-114.746,288.574,-63.965,-52.734,0.000,0
1644798353.817,-118.164,-786.133,-79.590,-50.293,0.000,0
1644798353.821,-126.465,-1000.000,-66.895,-81.055,0.000,0
1644798353.825,-125.000,-452.637,-43.457,-107.422,0.000,0
1644798353.829,-104.492,1.953,-55.176,-78.125,0.000,0
1644798353.833,-95.215,-269.531,-63.477,-50.293,0.000,0
1644798353.837,-109.863,-533.203,-64.453,-44.434,0.000,0
1644798353.841,-120.117,-1000.000,-77.148,-49.805,0.000,0
1644798353.840,-109.863,-664.551,-55.176,-78.613,0.000,0
1644798353.844,-110.840,469.727,-40.527,-67.871,0.000,0
1644798353.848,-116.211,674.805,-57.129,-59.082,0.000,0
1644798353.852,-112.793,-312.500,-76.172,-48.340,0.000,0
1644798353.856,-116.211,-996.094,-77.637,-59.570,0.000,0
1644798353.860,-111.816,-661.621,-51.758,-96.191,0.000,0
1644798353.864,-113.770,217.285,-39.062,-92.773,0.000,0
1644798353.867,-104.004,336.914,-51.758,-61.523,0.000,0
1644798353.871,-102.539,-648.926,-69.824,-42.480,0.000,0
1644798353.875,-120.117,-1000.000,-69.336,-71.289,0.000,0
1644798353.879,-114.258,-753.906,-49.316,-97.168,0.000,0
1644798353.883,-103.516,-33.203,-43.945,-87.891,0.000,0
1644798353.882,-104.980,288.574,-51.758,-69.824,0.000,0
1644798353.886,-112.305,-81.055,-60.059,-62.988,0.000,0
1644798353.890,-120.605,-837.891,-71.289,-76.660,0.000,0
1644798353.894,-126.953,-976.074,-55.664,-84.961,0.000,0
1644798353.898,-121.094,8.301,-38.574,-79.590,0.000,0
1644798353.902,-106.934,529.297,-54.199,-70.312,0.000,0
1644798353.906,-113.770,-277.344,-66.406,-61.035,0.000,0
1644798353.910,-109.375,-990.234,-74.219,-59.570,0.000,0
1644798353.914,-113.770,-879.395,-54.688,-80.566,0.000,0
1644798353.918,-128.418,116.699,-29.785,-102.539,0.000,0
1644798353.922,-110.352,804.688,-49.805,-75.684,0.000,0
1644798353.925,-103.516,97.656,-63.477,-54.688,0.000,0
1644798353.925,-115.234,-791.016,-58.105,-58.594,0.000,0
1644798353.929,-125.000,-1000.000,-54.199,-83.496,0.000,0
1644798353.933,-121.582,-225.098,-41.016,-95.703,0.000,0
1644798353.937,-108.398,587.891,-36.133,-71.289,0.000,0
1644798353.941,-108.887,254.883,-50.293,-52.734,0.000,0
1644798353.944,-108.887,-631.836,-66.895,-46.387,0.000,0
1644798353.948,-112.793,-1000.000,-53.711,-72.754,0.000,0
1644798353.952,-100.586,-867.676,-36.133,-84.961,0.000,0
1644798353.956,-100.098,170.898,-38.574,-76.660,0.000,0
1644798353.960,-106.445,473.145,-42.480,-68.359,0.000,0
1644798353.964,-96.191,-530.762,-61.523,-50.781,0.000,0
1644798353.968,-109.863,-1000.000,-62.012,-70.801,0.000,0
1644798353.968,-120.605,-279.297,-33.691,-107.422,0.000,0
1644798353.972,-97.168,788.574,-28.809,-100.098,0.000,0
1644798353.976,-95.703,434.082,-49.316,-65.918,0.000,0
1644798353.980,-109.863,-592.285,-66.406,-45.898,0.000,0
1644798353.984,-110.840,-1000.000,-69.336,-66.895,0.000,0
1644798353.988,-117.676,-601.074,-56.152,-102.539,0.000,0
1644798353.992,-118.164,-32.715,-53.711,-81.055,0.000,0
1644798353.996,-113.770,-208.008,-61.523,-61.035,0.000,0
1644798354.000,-117.188,-520.020,-62.988,-60.547,0.000,0
1644798354.004,-118.164,-1000.000,-64.941,-70.312,0.000,0
1644798354.008,-124.023,-755.859,-50.293,-108.398,0.000,0
1644798354.011,-117.676,379.395,-35.156,-105.469,0.000,0
1644798354.011,-114.258,745.605,-49.805,-77.637,0.000,0
1644798354.015,-119.141,-206.543,-77.148,-62.012,0.000,0
1644798354.019,-126.953,-1000.000,-65.918,-63.965,0.000,0
1644798354.023,-131.348,-681.641,-38.086,-95.703,0.000,0
1644798354.027,-124.512,430.176,-31.738,-94.238,0.000,0
1644798354.031,-109.375,534.668,-47.363,-50.781,0.000,0
1644798354.035,-105.957,-515.137,-58.594,-47.363,0.000,0
1644798354.038,-122.559,-1000.000,-62.500,-65.430,0.000,0
1644798354.042,-126.465,-872.559,-47.852,-86.914,0.000,0
1644798354.046,-124.023,-152.344,-35.156,-96.191,0.000,0
1644798354.050,-104.980,-13.184,-45.898,-82.520,0.000,0
1644798354.054,-101.074,-429.688,-49.316,-64.453,0.000,0
1644798354.054,-120.605,-832.520,-71.289,-61.523,0.000,0
1644798354.058,-125.977,-1000.000,-65.918,-81.055,0.000,0
1644798354.062,-113.281,-110.352,-29.297,-95.703,0.000,0
1644798354.066,-96.191,823.730,-36.621,-84.473,0.000,0
1644798354.069,-101.074,190.430,-53.711,-61.523,0.000,0
1644798354.073,-115.723,-849.121,-69.824,-50.781,0.000,0
1644798354.077,-129.395,-971.191,-60.547,-76.660,0.000,0
1644798354.081,-122.559,-60.059,-33.691,-101.074,0.000,0
1644798354.085,-92.285,763.184,-45.410,-84.961,0.000,0
1644798354.089,-97.168,-80.078,-60.547,-47.852,0.000,0
1644798354.093,-107.422,-1000.000,-63.477,-31.738,0.000,0
1644798354.097,-125.000,-950.684,-61.035,-71.289,0.000,0
1644798354.098,-133.301,-197.266,-51.758,-93.750,0.000,0
1644798354.102,-110.840,574.707,-49.316,-71.777,0.000,0
1644798354.106,-109.863,341.797,-57.129,-45.410,0.000,0
1644798354.109,-119.141,-498.047,-63.477,-40.039,0.000,0
1644798354.113,-121.582,-1000.000,-62.988,-79.102,0.000,0
1644798354.117,-126.465,-677.246,-62.012,-106.934,0.000,0
1644798354.121,-128.906,266.602,-56.641,-89.844,0.000,0
1644798354.125,-116.699,197.754,-59.082,-70.312,0.000,0
1644798354.129,-113.281,-605.469,-75.195,-59.570,0.000,0
1644798354.133,-122.559,-1000.000,-74.707,-76.172,0.000,0
1644798354.137,-117.188,-492.188,-46.875,-104.980,0.000,0
1644798354.140,-112.305,743.652,-36.621,-96.680,0.000,0
1644798354.142,-111.816,410.645,-61.035,-75.195,0.000,0
1644798354.146,-122.070,-848.633,-82.520,-61.523,0.000,0
1644798354.149,-142.578,-1000.000,-70.801,-84.961,0.000,0
1644798354.153,-136.230,-532.227,-46.875,-105.957,0.000,0
1644798354.157,-118.164,347.168,-41.992,-92.285,0.000,0
1644798354.161,-107.422,219.727,-58.105,-71.289,0.000,0
1644798354.165,-109.375,-610.352,-66.406,-64.453,0.000,0
1644798354.169,-123.535,-961.426,-71.289,-83.984,0.000,0
1644798354.173,-126.465,-1000.000,-60.059,-100.098,0.000,0
1644798354.177,-121.094,-333.496,-33.203,-88.379,0.000,0
1644798354.180,-123.535,628.906,-40.039,-83.008,0.000,0
1644798354.184,-119.141,-121.582,-68.848,-61.035,0.000,0
1644798354.186,-119.141,-998.047,-75.195,-51.270,0.000,0
1644798354.190,-118.652,-801.758,-53.223,-89.844,0.000,0
1644798354.193,-123.047,294.922,-31.738,-104.492,0.000,0
1644798354.197,-112.305,725.586,-46.387,-75.195,0.000,0
1644798354.201,-103.027,-301.270,-73.242,-49.316,0.000,0
1644798354.205,-107.910,-1000.000,-72.266,-52.734,0.000,0
1644798354.209,-106.934,-924.805,-41.504,-86.914,0.000,0
1644798354.213,-107.910,-206.055,-23.438,-92.285,0.000,0
1644798354.217,-96.191,-15.137,-33.691,-67.383,0.000,0
1644798354.221,-100.586,-351.074,-49.805,-53.711,0.000,0
1644798354.224,-118.164,-707.520,-70.312,-52.734,0.000,0
1644798354.228,-114.746,-1000.000,-63.965,-78.125,0.000,0
1644798354.230,-106.445,-247.070,-35.645,-97.656,0.000,0
1644798354.234,-111.816,716.797,-38.574,-91.309,0.000,0
1644798354.237,-114.258,360.840,-48.828,-68.848,0.000,0
1644798354.241,-107.422,-589.844,-61.523,-56.152,0.000,0
1644798354.245,-110.840,-1000.000,-57.129,-88.379,0.000,0
1644798354.249,-113.281,-344.238,-36.133,-106.445,0.000,0
1644798354.253,-101.562,441.406,-32.715,-83.008,0.000,1
1644798354.257,-95.703,-168.457,-56.152,-51.758,0.000,0
1644798354.261,-103.516,-1000.000,-70.801,-40.527,0.000,0
1644798354.265,-121.582,-987.793,-53.711,-78.613,0.000,0
1644798354.268,-128.906,-265.625,-41.016,-110.840,0.000,0
1644798354.272,-114.258,510.254,-42.480,-90.332,0.000,0
1644798354.274,-107.910,375.000,-53.711,-54.688,0.000,0
1644798354.278,-113.281,-404.785,-69.336,-36.621,0.000,0
1644798354.282,-125.488,-1000.000,-69.336,-59.570,0.000,0
1644798354.285,-125.977,-595.215,-42.969,-97.168,0.000,0
1644798354.289,-102.539,513.184,-36.133,-95.215,0.000,0
1644798354.293,-98.633,322.754,-52.734,-69.824,0.000,0
1644798354.297,-109.375,-643.066,-67.871,-51.758,0.000,0
1644798354.301,-112.793,-1000.000,-69.336,-65.918,0.000,0
1644798354.305,-126.953,-602.539,-41.016,-104.492,0.000,0
1644798354.309,-111.816,514.648,-30.762,-104.492,0.000,0
1644798354.312,-98.633,466.797,-50.293,-76.660,0.000,0
1644798354.316,-113.770,-554.688,-65.918,-60.059,0.000,0
1644798354.318,-121.582,-1000.000,-68.359,-76.660,0.000,0
1644798354.322,-123.535,-573.242,-50.293,-112.305,0.000,0
1644798354.326,-104.004,312.012,-30.762,-105.957,0.000,0
1644798354.330,-96.191,534.180,-34.668,-72.266,0.000,0
1644798354.333,-114.746,-122.070,-55.664,-52.734,0.000,0
1644798354.337,-120.605,-905.273,-54.688,-48.828,0.000,0
1644798354.341,-119.629,-1000.000,-36.621,-61.035,0.000,0
1644798354.345,-116.699,-489.746,-26.367,-76.660,0.000,0
1644798354.349,-103.516,512.695,-21.484,-79.590,0.000,0
1644798354.353,-106.445,70.801,-41.992,-55.664,0.000,0
1644798354.357,-113.281,-892.090,-58.105,-53.711,0.000,0
1644798354.360,-120.605,-847.656,-43.457,-85.938,0.000,0
1644798354.362,-116.211,229.492,-22.461,-93.750,0.000,0
1644798354.366,-101.562,628.906,-38.574,-69.824,0.000,0
1644798354.370,-100.098,-120.117,-58.594,-46.875,0.000,0
1644798354.374,-103.027,-833.984,-60.059,-55.176,0.000,0
1644798354.377,-122.070,-910.645,-48.340,-76.172,0.000,0
1644798354.381,-115.723,-162.109,-38.086,-78.125,0.000,0
1644798354.385,-103.027,-59.570,-56.152,-56.641,0.000,0
1644798354.389,-106.934,-558.594,-62.988,-48.828,0.000,0
1644798354.393,-122.559,-804.199,-62.500,-56.152,0.000,0
1644798354.397,-133.301,-1000.000,-60.059,-86.426,0.000,0
1644798354.401,-116.211,-445.312,-37.598,-110.352,0.000,0
1644798354.404,-106.934,587.402,-33.203,-94.238,0.000,0
1644798354.406,-112.305,418.457,-52.246,-73.242,0.000,0
1644798354.410,-108.398,-549.805,-68.359,-49.805,0.000,0
1644798354.414,-114.258,-1000.000,-59.570,-62.988,0.000,0
1644798354.418,-118.164,-280.762,-37.598,-92.773,0.000,0
1644798354.421,-107.910,607.910,-40.527,-73.242,0.000,0
1644798354.425,-108.398,29.785,-55.664,-49.316,0.000,0
1644798354.429,-106.934,-843.750,-61.035,-46.387,0.000,0
1644798354.433,-125.000,-1000.000,-53.223,-72.266,0.000,0
1644798354.437,-135.254,-376.465,-35.156,-97.168,0.000,0
1644798354.441,-107.910,155.273,-42.480,-72.754,0.000,0
1644798354.445,-107.422,-20.508,-50.781,-60.059,0.000,0
1644798354.448,-115.723,-395.508,-57.617,-61.523,0.000,0
1644798354.451,-114.746,-1000.000,-64.453,-62.988,0.000,0
1644798354.455,-125.488,-727.539,-40.039,-83.008,0.000,0
1644798354.459,-125.000,382.324,-32.715,-97.656,0.000,0
1644798354.463,-98.633,662.109,-50.781,-78.613,0.000,0
1644798354.466,-91.797,-312.988,-64.453,-47.852,0.000,0
1644798354.470,-109.375,-1000.000,-69.824,-65.430,0.000,0
1644798354.474,-106.445,-855.957,-45.898,-98.633,0.000,0
1644798354.478,-101.074,17.090,-30.762,-83.496,0.000,0
1644798354.482,-85.938,276.855,-49.316,-57.617,0.000,0
1644798354.486,-89.355,-645.996,-59.570,-41.504,0.000,0
1644798354.490,-110.352,-1000.000,-58.105,-52.246,0.000,0
1644798354.493,-121.582,-709.473,-47.852,-95.215,0.000,0
1644798354.496,-111.328,90.332,-30.762,-94.238,0.000,0
1644798354.500,-93.750,472.168,-37.109,-65.430,0.000,0
1644798354.504,-86.914,-19.043,-53.223,-45.898,0.000,0
1644798354.508,-95.703,-828.613,-57.129,-30.273,0.000,0
1644798354.511,-118.164,-998.047,-48.340,-62.500,0.000,0
1644798354.515,-111.328,-294.434,-36.133,-91.309,0.000,0
1644798354.519,-95.215,421.875,-39.551,-77.148,0.000,0
1644798354.523,-93.750,61.035,-54.199,-55.664,0.000,0
1644798354.527,-95.703,-818.848,-75.684,-45.898,0.000,0
1644798354.531,-112.305,-947.266,-58.594,-80.078,0.000,0
1644798354.535,-116.211,-112.305,-29.785,-101.074,0.000,0
1644798354.538,-98.633,470.215,-37.109,-73.242,0.000,0
1644798354.541,-106.934,-5.371,-47.363,-51.270,0.000,0
1644798354.545,-119.141,-775.879,-62.012,-53.711,0.000,0
1644798354.549,-124.512,-967.773,-52.734,-82.520,0.000,0
1644798354.553,-112.793,-175.781,-31.250,-98.145,0.000,0
1644798354.556,-93.750,557.617,-40.039,-87.402,0.000,0
1644798354.560,-106.934,90.332,-59.082,-75.195,0.000,0
1644798354.564,-117.188,-743.652,-72.754,-65.430,0.000,0
1644798354.568,-118.164,-1000.000,-64.453,-80.566,0.000,0
1644798354.572,-123.535,-863.281,-46.387,-86.914,0.000,0
1644798354.576,-125.488,205.566,-34.180,-77.637,0.000,0
1644798354.580,-115.234,540.527,-41.504,-69.336,0.000,0
1644798354.583,-111.816,-455.566,-63.965,-53.711,0.000,0
1644798354.586,-123.047,-1000.000,-60.059,-73.242,0.000,0
1644798354.590,-127.930,-565.918,-36.621,-108.887,0.000,0
1644798354.594,-108.887,463.379,-25.391,-94.727,0.000,0
1644798354.598,-104.980,340.820,-37.598,-71.289,0.000,0
1644798354.601,-112.793,-616.699,-55.664,-62.988,0.000,0
1644798354.605,-123.047,-1000.000,-62.012,-82.031,0.000,0
1644798354.609,-125.488,-636.230,-46.387,-115.723,0.000,0
1644798354.613,-102.539,-82.031,-44.922,-97.656,0.000,0
1644798354.617,-104.980,-211.426,-58.594,-66.406,0.000,0
1644798354.621,-117.188,-458.496,-59.082,-59.082,0.000,0
1644798354.624,-122.070,-999.023,-67.383,-76.172,0.000,0
1644798354.628,-133.301,-809.082,-53.711,-105.957,0.000,0
1644798354.631,-117.188,320.312,-30.273,-89.844,0.000,0
1644798354.635,-101.562,742.188,-36.621,-63.965,0.000,0
1644798354.639,-114.746,-147.461,-60.059,-56.641,0.000,0
1644798354.643,-118.164,-987.305,-67.871,-64.453,0.000,0
1644798354.646,-118.164,-824.707,-46.875,-80.566,0.000,0
1644798354.650,-106.445,17.578,-34.180,-71.289,0.000,0
1644798354.654,-107.910,274.414,-41.992,-59.570,0.000,0
1644798354.658,-115.234,-576.172,-55.664,-51.758,0.000,0
1644798354.662,-118.164,-1000.000,-66.895,-54.199,0.000,0
1644798354.666,-107.910,-763.672,-51.270,-79.590,0.000,0
1644798354.669,-110.352,-34.668,-38.574,-93.262,0.000,0
1644798354.673,-114.746,292.969,-48.340,-69.824,0.000,0
1644798354.676,-109.863,10.742,-53.711,-52.246,0.000,0
1644798354.680,-121.582,-708.984,-62.012,-57.129,0.000,0
1644798354.684,-130.859,-1000.000,-59.082,-83.984,0.000,0
1644798354.688,-115.723,-187.012,-39.551,-93.262,0.000,0
1644798354.691,-100.098,754.395,-40.039,-71.289,0.000,0
1644798354.695,-83.984,12.695,-54.199,-55.664,0.000,0
1644798354.699,-92.773,-887.207,-69.336,-35.645,0.000,0
1644798354.703,-116.211,-1000.000,-59.082,-50.293,0.000,0
1644798354.707,-114.746,-336.914,-28.809,-90.332,0.000,0
1644798354.711,-104.980,685.059,-35.156,-80.566,0.000,0
1644798354.714,-95.215,256.836,-49.805,-46.387,0.000,0
1644798354.718,-103.516,-695.801,-60.059,-38.086,0.000,0
1644798354.721,-118.652,-974.609,-54.688,-70.312,0.000,0
1644798354.725,-108.398,-267.578,-33.691,-88.867,0.000,0
1644798354.729,-93.750,494.141,-36.621,-62.988,0.000,0
1644798354.732,-102.539,369.629,-45.410,-50.293,0.000,0
1644798354.736,-106.445,-453.613,-62.012,-50.293,0.000,0
1644798354.740,-102.539,-1000.000,-69.336,-56.641,0.000,0
1644798354.744,-109.375,-873.047,-52.734,-83.008,0.000,0
1644798354.748,-112.305,19.043,-41.504,-82.031,0.000,0
1644798354.752,-103.516,446.289,-42.969,-65.430,0.000,0
1644798354.755,-99.121,-348.145,-62.012,-32.227,0.000,0
1644798354.759,-109.863,-1000.000,-66.895,-42.969,0.000,0
1644798354.763,-117.676,-616.211,-32.715,-89.844,0.000,0
1644798354.766,-98.145,612.305,-20.996,-81.055,0.000,0
1644798354.770,-84.473,538.574,-46.387,-52.734,0.000,0
1644798354.774,-98.633,-519.043,-65.430,-40.527,0.000,0
1644798354.777,-111.816,-1000.000,-62.012,-64.453,0.000,0
1644798354.781,-103.027,-567.871,-42.480,-93.262,0.000,0
1644798354.785,-84.473,7.324,-40.527,-73.242,0.000,0
1644798354.789,-89.355,-5.371,-47.363,-51.270,0.000,0
1644798354.793,-102.539,-315.918,-62.012,-50.781,0.000,0
1644798354.797,-115.234,-936.035,-79.590,-66.406,0.000,0
1644798354.800,-107.910,-1000.000,-61.035,-83.984,0.000,0
1644798354.804,-81.055,-108.887,-33.203,-80.078,0.000,0
1644798354.808,-100.586,670.898,-40.039,-70.801,0.000,0
1644798354.812,-114.746,-68.848,-62.988,-56.641,0.000,0
1644798354.815,-108.398,-974.609,-72.754,-60.547,0.000,0
1644798354.819,-128.418,-846.191,-51.270,-94.727,0.000,0
1644798354.823,-123.535,214.844,-27.832,-100.098,0.000,0
1644798354.827,-99.121,703.125,-45.410,-74.707,0.000,0
1644798354.831,-101.074,-319.824,-71.289,-48.340,0.000,0
1644798354.835,-111.816,-1000.000,-73.242,-48.340,0.000,0
1644798354.838,-110.352,-937.500,-56.641,-86.914,0.000,0
1644798354.842,-107.422,-304.688,-48.828,-98.633,0.000,0
1644798354.846,-98.633,152.832,-57.129,-68.359,0.000,0
1644798354.850,-99.121,-46.387,-59.082,-48.828,0.000,0
1644798354.854,-120.117,-650.879,-70.312,-56.152,0.000,0
1644798354.857,-133.301,-1000.000,-65.918,-91.797,0.000,0
1644798354.861,-125.977,-304.688,-45.898,-114.746,0.000,0
1644798354.865,-113.281,737.793,-45.898,-84.473,0.000,0
1644798354.869,-113.281,435.059,-57.617,-66.406,0.000,0
1644798354.872,-114.746,-574.707,-72.754,-64.453,0.000,0
1644798354.876,-128.418,-1000.000,-74.219,-82.031,0.000,0
1644798354.880,-132.324,-537.109,-46.387,-103.027,0.000,0
1644798354.884,-118.164,580.566,-33.203,-92.773,0.000,0
1644798354.888,-97.168,62.012,-62.988,-58.594,0.000,0
1644798354.892,-95.215,-1000.000,-81.543,-45.410,0.000,0
1644798354.895,-128.418,-1000.000,-66.895,-83.496,0.000,0
1644798354.899,-129.395,-399.414,-51.270,-108.398,0.000,0
1644798354.903,-104.004,471.680,-47.852,-80.566,0.000,0
1644798354.907,-99.609,461.914,-54.688,-60.059,0.000,0
1644798354.910,-105.957,-349.609,-62.500,-57.129,0.000,0
1644798354.914,-111.816,-1000.000,-58.594,-67.871,0.000,0
1644798354.918,-111.328,-676.758,-37.598,-98.633,0.000,0
1644798354.922,-100.586,288.574,-34.668,-85.938,0.000,0
1644798354.926,-91.309,259.277,-50.781,-64.453,0.000,0
1644798354.930,-103.027,-603.516,-73.242,-46.387,0.000,0
1644798354.933,-113.770,-1000.000,-76.660,-55.176,0.000,0
1644798354.937,-114.258,-617.676,-43.945,-102.051,0.000,0
1644798354.941,-118.652,549.316,-32.227,-110.352,0.000,0
1644798354.945,-110.840,594.727,-62.500,-81.055,0.000,0
1644798354.948,-106.934,-412.109,-86.426,-57.617,0.000,0
1644798354.952,-111.328,-983.887,-78.125,-72.754,0.000,0
1644798354.956,-111.816,-652.344,-63.477,-109.375,0.000,0
1644798354.960,-112.793,226.074,-54.199,-97.656,0.000,0
1644798354.964,-109.375,514.160,-58.594,-72.266,0.000,0
1644798354.968,-104.004,-285.645,-71.777,-65.918,0.000,0
1644798354.971,-117.188,-977.539,-74.707,-69.336,0.000,0
1644798354.975,-119.629,-1000.000,-65.430,-87.402,0.000,0
1644798354.979,-114.746,-476.074,-49.805,-89.844,0.000,0
1644798354.983,-105.469,577.637,-46.387,-64.941,0.000,0
1644798354.987,-89.844,19.531,-61.523,-37.598,0.000,0
1644798354.990,-111.328,-945.312,-70.312,-53.223,0.000,0
1644798354.995,-139.648,-876.465,-60.547,-96.191,0.000,0
1644798354.999,-126.465,160.645,-44.922,-119.629,0.000,0
1644798355.003,-106.445,772.949,-48.340,-90.820,0.000,0
1644798355.007,-114.258,59.082,-67.871,-76.172,0.000,0
1644798355.011,-129.883,-757.812,-80.566,-88.867,0.000,0
1644798355.014,-135.742,-1000.000,-67.383,-106.445,0.000,0
1644798355.018,-111.816,-335.938,-42.969,-100.586,0.000,0
1644798355.022,-96.191,9.277,-39.062,-69.336,0.000,0
1644798355.026,-116.699,-196.777,-53.223,-63.477,0.000,0
1644798355.030,-125.000,-542.480,-70.801,-66.895,0.000,0
1644798355.034,-129.883,-1000.000,-68.359,-91.309,0.000,0
1644798355.037,-125.977,-470.703,-46.387,-115.234,0.000,0
1644798355.041,-114.258,643.555,-39.551,-100.586,0.000,0
1644798355.044,-104.004,307.617,-64.453,-72.754,0.000,0
1644798355.048,-104.492,-704.590,-78.125,-47.363,0.000,0
1644798355.052,-123.535,-1000.000,-66.406,-82.520,0.000,0
1644798355.056,-128.906,-321.289,-50.293,-114.258,0.000,0
1644798355.060,-108.887,486.328,-50.293,-77.637,0.000,0
1644798355.064,-105.469,127.441,-65.430,-52.734,0.000,0
1644798355.067,-111.328,-608.887,-73.730,-53.223,0.000,0
1644798355.071,-113.281,-1000.000,-66.406,-81.543,0.000,0
1644798355.075,-116.699,-476.074,-52.734,-116.699,0.000,0
1644798355.079,-92.285,310.547,-46.387,-100.098,0.000,0
1644798355.083,-83.008,278.809,-47.852,-64.941,0.000,0
1644798355.086,-113.281,-363.281,-69.336,-40.527,0.000,0
1644798355.090,-124.023,-963.379,-79.590,-70.801,0.000,0
1644798355.094,-103.516,-1000.000,-65.918,-113.770,0.000,0
1644798355.098,-101.074,-189.453,-45.898,-99.121,0.000,0
1644798355.101,-102.539,509.766,-46.387,-75.684,0.000,0
1644798355.105,-98.633,-452.637,-67.871,-48.340,0.000,0
1644798355.109,-102.051,-1000.000,-69.824,-52.734,0.000,0
1644798355.113,-109.375,-878.906,-49.316,-85.449,0.000,0
1644798355.117,-112.793,79.590,-35.645,-99.609,0.000,0
1644798355.120,-91.797,459.961,-53.711,-84.473,0.000,0
1644798355.124,-91.309,-601.562,-74.219,-48.828,0.000,0
1644798355.128,-122.559,-1000.000,-65.430,-51.758,0.000,0
1644798355.131,-139.648,-711.426,-48.828,-100.098,0.000,0
1644798355.135,-124.023,55.176,-37.109,-117.676,0.000,0
1644798355.139,-103.516,472.168,-42.480,-81.543,0.000,0
1644798355.143,-105.957,96.191,-59.082,-45.410,0.000,0
1644798355.147,-113.770,-699.219,-68.359,-40.039,0.000,0
1644798355.151,-111.328,-1000.000,-64.453,-68.848,0.000,0
1644798355.154,-101.562,-372.070,-37.598,-86.914,0.000,0
1644798355.158,-97.168,552.246,-34.180,-77.148,0.000,0
1644798355.162,-105.469,-95.703,-66.406,-55.664,0.000,0
1644798355.166,-105.469,-929.688,-73.730,-46.875,0.000,0
1644798355.170,-112.305,-936.035,-48.340,-75.684,0.000,0
1644798355.174,-124.512,-38.086,-30.762,-96.680,0.000,1
1644798355.177,-108.887,710.938,-39.062,-75.684,0.000,0
1644798355.181,-86.914,212.402,-49.316,-51.270,0.000,0
1644798355.185,-99.121,-657.227,-64.453,-47.852,0.000,0
1644798355.189,-124.023,-966.309,-62.988,-81.543,0.000,0
1644798355.193,-116.211,-229.980,-52.246,-98.145,0.000,0
1644798355.197,-104.492,339.844,-60.059,-75.195,0.000,0
1644798355.200,-86.914,-42.480,-69.336,-53.711,0.000,0
1644798355.204,-85.449,-700.195,-77.148,-41.504,0.000,0
1644798355.208,-121.094,-1000.000,-71.777,-64.453,0.000,0
1644798355.212,-123.047,-695.312,-43.457,-82.520,0.000,0
1644798355.216,-97.656,287.598,-29.785,-73.242,0.000,0
1644798355.220,-84.961,297.363,-42.480,-58.594,0.000,0
1644798355.223,-81.055,-505.859,-57.617,-35.156,0.000,0
1644798355.227,-87.402,-1000.000,-52.734,-54.199,0.000,0
1644798355.231,-108.887,-463.379,-22.461,-88.867,0.000,0
1644798355.235,-105.957,679.688,-23.438,-84.473,0.000,0
1644798355.239,-85.449,449.219,-52.734,-64.941,0.000,0
1644798355.243,-94.238,-644.531,-67.383,-44.922,0.000,0
1644798355.246,-113.770,-1000.000,-67.383,-57.129,0.000,0
1644798355.250,-124.023,-485.352,-49.316,-95.703,0.000,0
1644798355.254,-107.422,27.832,-42.969,-71.777,0.000,0
1644798355.258,-97.656,-168.945,-50.293,-47.363,0.000,0
1644798355.262,-111.328,-345.215,-53.223,-65.430,0.000,0
1644798355.266,-106.934,-974.609,-69.336,-71.289,0.000,0
1644798355.269,-106.445,-768.555,-58.594,-97.656,0.000,0
1644798355.273,-107.910,232.910,-41.016,-94.727,0.000,0
1644798355.277,-97.656,491.699,-54.688,-74.219,0.000,0
1644798355.281,-106.445,-202.148,-69.824,-56.641,0.000,0
1644798355.285,-110.352,-954.590,-72.266,-53.711,0.000,0
1644798355.289,-106.934,-934.570,-58.594,-88.867,0.000,0
1644798355.292,-114.258,-179.199,-42.969,-113.770,0.000,0
1644798355.296,-101.074,260.254,-44.922,-91.309,0.000,0
1644798355.300,-92.285,-537.109,-55.664,-47.363,0.000,0
1644798355.304,-101.074,-1000.000,-58.105,-54.688,0.000,0
1644798355.308,-111.328,-774.902,-44.922,-101.562,0.000,0
1644798355.312,-108.398,-42.969,-34.180,-100.586,0.000,0
1644798355.315,-96.191,507.324,-37.598,-67.871,0.000,0
1644798355.319,-86.426,271.484,-40.039,-58.594,0.000,0
1644798355.323,-101.074,-611.816,-55.664,-60.059,0.000,0
1644798355.327,-115.723,-1000.000,-56.152,-88.379,0.000,0
1644798355.331,-112.793,-240.234,-38.086,-105.469,0.000,0
1644798355.334,-99.121,514.648,-42.969,-80.078,0.000,0
1644798355.338,-108.887,-52.246,-62.500,-58.105,0.000,0
1644798355.342,-114.746,-844.238,-85.938,-48.340,0.000,0
1644798355.346,-120.117,-1000.000,-67.871,-85.449,0.000,0
1644798355.350,-136.230,-214.844,-30.762,-127.441,0.000,0
1644798355.354,-113.281,673.828,-37.109,-95.703,0.000,0
1644798355.357,-104.492,300.781,-53.223,-62.500,0.000,0
1644798355.361,-103.516,-581.543,-60.547,-60.547,0.000,0
1644798355.365,-115.234,-1000.000,-55.664,-83.984,0.000,0
1644798355.369,-124.512,-406.250,-43.457,-109.863,0.000,0
1644798355.373,-105.957,499.023,-35.156,-82.031,0.000,0
1644798355.377,-99.121,405.273,-44.922,-53.711,0.000,0
1644798355.380,-103.027,-564.941,-69.336,-44.922,0.000,0
1644798355.384,-114.258,-1000.000,-62.012,-63.965,0.000,0
1644798355.388,-115.234,-956.055,-42.480,-85.938,0.000,0
1644798355.392,-105.957,-104.492,-40.039,-86.426,0.000,0
1644798355.396,-113.770,454.590,-49.316,-77.148,0.000,0
1644798355.400,-110.840,-369.629,-65.918,-49.316,0.000,0
1644798355.403,-115.723,-1000.000,-68.359,-59.570,0.000,0
1644798355.407,-135.742,-619.629,-43.945,-102.051,0.000,0
1644798355.411,-119.629,553.223,-30.273,-89.355,0.000,0
1644798355.415,-97.168,568.359,-47.363,-54.688,0.000,0
1644798355.419,-102.051,-388.184,-61.035,-54.688,0.000,0
1644798355.422,-130.371,-988.281,-62.012,-92.285,0.000,0
1644798355.426,-144.043,-758.301,-46.875,-127.441,0.000,0
1644798355.430,-139.160,-216.797,-44.922,-119.141,0.000,0
1644798355.434,-132.812,-128.906,-52.734,-106.445,0.000,0
1644798355.438,-145.020,-266.602,-47.363,-104.004,0.000,0
1644798355.442,-166.992,-872.070,-56.152,-122.559,0.000,0
1644798355.445,-182.129,-911.133,-46.875,-165.039,0.000,0
1644798355.449,-183.594,-83.984,-35.645,-170.898,0.000,0
1644798355.453,-193.359,584.961,-39.062,-167.480,0.000,0
1644798355.457,-216.309,81.055,-50.293,-167.480,0.000,0
1644798355.461,-220.215,-902.832,-65.918,-165.527,0.000,0
1644798355.464,-240.234,-880.859,-51.758,-193.359,0.000,0
1644798355.468,-233.887,125.488,-33.203,-210.449,0.000,0
1644798355.472,-217.285,513.184,-41.504,-187.012,0.000,0
1644798355.476,-223.145,-461.426,-62.012,-151.367,0.000,0
1644798355.480,-206.055,-1000.000,-59.082,-142.578,0.000,0
1644798355.483,-204.590,-860.352,-38.574,-178.223,0.000,0
1644798355.487,-197.754,-162.109,-31.250,-180.176,0.000,0
1644798355.491,-183.105,467.285,-38.574,-145.508,0.000,0
1644798355.495,-180.664,277.832,-49.805,-122.559,0.000,0
1644798355.499,-168.457,-542.969,-66.406,-108.887,0.000,0
1644798355.503,-155.762,-1000.000,-71.777,-128.418,0.000,0
1644798355.507,-135.742,-474.609,-52.734,-135.254,0.000,0
1644798355.511,-116.211,626.953,-43.457,-94.238,0.000,0
1644798355.515,-102.539,395.996,-49.316,-63.965,0.000,0
1644798355.518,-107.422,-663.086,-65.918,-46.875,0.000,0
1644798355.522,-121.094,-1000.000,-63.477,-56.152,0.000,0
1644798355.526,-117.676,-319.824,-35.156,-89.355,0.000,0
1644798355.530,-93.750,738.770,-20.020,-71.777,0.000,0
1644798355.534,-83.008,158.203,-42.480,-41.504,0.000,0
1644798355.538,-75.195,-829.590,-62.988,-24.902,0.000,0
1644798355.541,-74.219,-1000.000,-56.641,-31.738,0.000,0
1644798355.546,-103.027,-498.535,-43.457,-54.199,0.000,0
1644798355.550,-88.867,363.770,-30.762,-47.852,0.000,0
1644798355.554,-68.848,424.316,-41.504,-29.785,0.000,0
1644798355.558,-76.172,-345.215,-59.082,-21.484,0.000,0
1644798355.561,-82.520,-1000.000,-60.547,-29.297,0.000,0
1644798355.565,-80.078,-816.895,-41.016,-45.898,0.000,0
1644798355.569,-67.383,30.762,-28.809,-40.527,0.000,0
1644798355.573,-54.199,199.707,-41.992,-10.742,0.000,0
1644798355.577,-61.035,-571.289,-58.105,1.953,0.000,0
1644798355.581,-66.895,-1000.000,-66.406,-6.348,0.000,0
1644798355.584,-71.777,-729.492,-45.410,-43.457,0.000,0
1644798355.588,-72.266,357.422,-26.855,-51.270,0.000,0
1644798355.592,-59.570,497.559,-42.969,-16.602,0.000,0
1644798355.596,-48.828,-393.555,-55.176,-0.977,0.000,0
1644798355.600,-59.082,-959.473,-53.223,-3.906,0.000,0
1644798355.604,-75.195,-729.980,-39.062,-39.062,0.000,0
1644798355.608,-63.965,62.988,-32.715,-48.828,0.000,0
1644798355.611,-48.828,173.828,-43.945,-23.926,0.000,0
1644798355.615,-59.082,-341.309,-49.805,-11.230,0.000,0
1644798355.619,-77.148,-859.863,-57.129,-20.996,0.000,0
1644798355.623,-96.680,-1000.000,-58.105,-55.176,0.000,0
1644798355.627,-91.797,-171.875,-37.598,-62.500,0.000,0
1644798355.631,-72.754,673.340,-30.273,-36.133,0.000,0
1644798355.634,-69.824,125.488,-46.387,-15.137,0.000,0
1644798355.639,-72.754,-802.246,-65.430,-9.766,0.000,0
1644798355.642,-72.266,-963.867,-44.922,-43.945,0.000,0
1644798355.646,-72.754,-49.805,-18.066,-65.918,0.000,0
1644798355.650,-53.711,630.371,-33.691,-38.574,0.000,0
1644798355.654,-58.594,10.742,-53.711,-35.156,0.000,0
1644798355.658,-87.402,-812.500,-67.871,-32.715,0.000,0
1644798355.662,-94.238,-1000.000,-49.805,-47.363,0.000,0
1644798355.665,-86.914,-444.824,-26.367,-71.289,0.000,0
1644798355.669,-74.219,-107.422,-39.062,-41.504,0.000,0
1644798355.673,-76.172,-189.453,-52.734,-30.762,0.000,0
1644798355.677,-73.242,-534.180,-58.594,-31.250,0.000,0
1644798355.681,-82.031,-1000.000,-59.570,-46.875,0.000,0
1644798355.685,-94.727,-465.332,-33.691,-73.242,0.000,0
1644798355.689,-83.984,648.438,-19.531,-51.758,0.000,0
1644798355.692,-83.984,555.664,-38.086,-31.738,0.000,0
1644798355.696,-87.402,-447.754,-59.570,-20.508,0.000,0
1644798355.700,-95.703,-1000.000,-57.129,-36.621,0.000,0
1644798355.704,-101.562,-646.973,-43.945,-74.219,0.000,0
1644798355.708,-96.191,342.285,-45.898,-82.031,0.000,0
1644798355.712,-90.332,-5.371,-60.059,-54.688,0.000,0
1644798355.715,-92.773,-992.188,-67.383,-13.184,0.000,0
1644798355.719,-90.332,-1000.000,-51.758,-42.480,0.000,0
1644798355.723,-90.332,-536.621,-30.762,-96.680,0.000,0
1644798355.727,-101.074,331.055,-29.785,-86.426,0.000,0
1644798355.731,-100.098,519.531,-43.457,-56.641,0.000,0
1644798355.735,-99.609,-199.219,-58.594,-43.945,0.000,0
1644798355.738,-106.934,-1000.000,-65.430,-52.734,0.000,0
1644798355.742,-112.793,-759.277,-41.504,-75.684,0.000,0
1644798355.746,-107.910,345.703,-31.738,-84.473,0.000,0
1644798355.750,-102.051,511.230,-50.293,-69.824,0.000,0
1644798355.754,-99.121,-457.520,-65.430,-47.852,0.000,0
1644798355.758,-104.004,-1000.000,-64.941,-43.457,0.000,0
1644798355.761,-112.305,-756.348,-28.809,-79.590,0.000,0
1644798355.765,-109.375,335.449,-14.160,-88.867,0.000,0
1644798355.769,-85.938,645.508,-32.227,-55.664,0.000,0
1644798355.773,-83.984,-178.711,-46.387,-38.574,0.000,0
1644798355.777,-110.840,-865.234,-56.152,-59.082,0.000,0
1644798355.781,-125.000,-764.648,-41.016,-84.473,0.000,0
1644798355.785,-106.934,27.832,-28.809,-75.195,0.000,0
1644798355.788,-89.355,514.160,-48.340,-61.523,0.000,0
1644798355.792,-93.750,84.961,-61.523,-50.781,0.000,0
1644798355.796,-99.609,-769.043,-69.824,-42.480,0.000,0
1644798355.800,-103.516,-1000.000,-60.059,-63.477,0.000,0
1644798355.804,-94.727,-578.613,-29.785,-86.426,0.000,0
1644798355.808,-92.285,532.227,-31.250,-73.730,0.000,0
1644798355.811,-95.703,312.012,-56.152,-45.898,0.000,0
1644798355.815,-100.586,-722.168,-71.289,-37.109,0.000,0
1644798355.819,-123.535,-997.559,-60.059,-75.684,0.000,0
1644798355.823,-121.582,-78.613,-31.250,-103.027,0.000,0
1644798355.827,-97.656,762.695,-41.992,-85.449,0.000,0
1644798355.831,-91.797,222.656,-63.965,-68.848,0.000,0
1644798355.834,-105.469,-648.438,-68.359,-55.176,0.000,0
1644798355.838,-112.793,-1000.000,-59.082,-70.801,0.000,0
1644798355.842,-112.305,-475.586,-47.363,-93.750,0.000,0
1644798355.846,-96.191,-149.902,-49.805,-64.941,0.000,0
1644798355.850,-88.379,-370.605,-57.617,-57.129,0.000,0
1644798355.854,-102.051,-658.691,-61.523,-63.477,0.000,0
1644798355.857,-114.746,-1000.000,-54.199,-66.895,0.000,0
1644798355.861,-125.000,-607.910,-39.062,-97.656,0.000,0
1644798355.865,-110.840,433.594,-28.809,-78.613,0.000,0
1644798355.869,-91.309,534.668,-41.016,-45.410,0.000,0
1644798355.873,-92.285,-402.832,-52.734,-29.297,0.000,0
1644798355.876,-100.586,-1000.000,-47.852,-36.133,0.000,0
1644798355.880,-111.328,-563.965,-30.273,-64.453,0.000,0
1644798355.884,-111.328,603.516,-18.555,-60.059,0.000,0
1644798355.888,-90.820,227.539,-41.016,-41.504,0.000,0
1644798355.892,-91.309,-880.859,-57.129,-27.832,0.000,0
1644798355.896,-108.887,-1000.000,-45.410,-52.246,0.000,0
1644798355.899,-107.422,-564.453,-35.645,-90.332,0.000,0
1644798355.903,-92.285,79.590,-39.551,-80.078,0.000,0
1644798355.907,-101.074,251.953,-44.434,-55.664,0.000,0
1644798355.911,-114.746,-289.062,-49.805,-35.156,0.000,0
1644798355.915,-114.746,-1000.000,-63.477,-36.621,0.000,0
1644798355.919,-115.234,-812.012,-49.316,-68.848,0.000,0
1644798355.923,-107.422,205.078,-22.949,-75.195,0.000,0
1644798355.927,-106.445,714.844,-36.621,-63.477,0.000,0
1644798355.931,-104.980,-61.523,-54.199,-54.688,0.000,0
1644798355.934,-96.191,-918.457,-58.105,-45.898,0.000,0
1644798355.938,-105.957,-982.910,-44.922,-66.895,0.000,0
1644798355.942,-113.281,-129.883,-21.484,-89.355,0.000,0
1644798355.946,-103.516,479.492,-35.156,-82.520,0.000,0
1644798355.950,-99.609,-411.621,-63.477,-54.199,0.000,0
1644798355.954,-109.375,-1000.000,-64.941,-43.945,0.000,0
1644798355.957,-122.070,-811.523,-55.176,-90.820,0.000,0
1644798355.962,-114.746,-104.004,-46.387,-107.422,0.000,0
1644798355.966,-105.469,502.930,-46.875,-79.590,0.000,0
1644798355.969,-110.352,112.793,-62.988,-52.734,0.000,0
1644798355.973,-121.094,-751.465,-71.777,-42.969,0.000,0
1644798355.977,-130.371,-1000.000,-62.012,-82.520,0.000,0
1644798355.981,-118.652,-475.586,-50.293,-97.168,0.000,0
1644798355.985,-108.398,402.344,-48.828,-75.684,0.000,0
1644798355.989,-108.887,332.520,-55.176,-59.570,0.000,0
1644798355.992,-99.121,-552.734,-72.266,-27.832,0.000,0
1644798355.996,-107.422,-1000.000,-68.848,-52.734,0.000,0
1644798356.000,-116.699,-256.348,-36.133,-106.445,0.000,0
1644798356.004,-102.051,658.691,-33.203,-96.680,0.000,0
1644798356.008,-108.887,280.273,-54.199,-66.895,0.000,0
1644798356.012,-115.234,-573.242,-66.895,-49.805,0.000,0
1644798356.016,-126.465,-1000.000,-58.594,-80.566,0.000,0
1644798356.020,-120.117,-448.730,-39.062,-117.188,0.000,0
1644798356.023,-97.168,413.574,-34.668,-96.191,0.000,0
1644798356.027,-107.910,246.094,-41.016,-53.223,0.000,0
1644798356.031,-117.188,-623.535,-52.246,-55.176,0.000,0
1644798356.035,-128.906,-1000.000,-60.059,-85.449,0.000,0
1644798356.039,-125.488,-1000.000,-47.363,-95.215,0.000,0
1644798356.043,-110.840,-118.652,-29.785,-84.961,0.000,0
1644798356.046,-107.910,546.875,-39.551,-69.824,0.000,0
1644798356.050,-113.770,-321.777,-64.941,-51.758,0.000,0
1644798356.054,-126.465,-1000.000,-73.242,-63.477,0.000,0
1644798356.058,-133.789,-644.043,-45.898,-92.285,0.000,0
1644798356.062,-116.699,436.523,-27.832,-95.703,0.000,0
1644798356.066,-111.328,488.770,-48.828,-87.402,0.000,0
1644798356.070,-127.441,-381.348,-68.848,-71.289,0.000,0
1644798356.074,-133.301,-1000.000,-77.148,-79.102,0.000,0
1644798356.077,-143.555,-803.223,-61.035,-121.094,0.000,0
1644798356.081,-133.301,-317.383,-50.293,-117.676,0.000,0
1644798356.085,-116.699,-278.320,-64.453,-89.355,0.000,0
1644798356.089,-138.184,-308.105,-69.824,-74.707,0.000,1
1644798356.093,-147.949,-825.684,-75.684,-69.336,0.000,0
1644798356.097,-140.625,-922.852,-64.453,-100.586,0.000,0
1644798356.101,-137.695,76.660,-53.223,-118.164,0.000,0
1644798356.105,-127.930,750.977,-65.430,-97.168,0.000,0
1644798356.108,-112.305,140.137,-79.102,-69.336,0.000,0
1644798356.112,-122.559,-832.031,-84.473,-64.453,0.000,0
1644798356.116,-131.348,-892.090,-65.918,-97.656,0.000,0
1644798356.120,-114.258,-117.676,-41.504,-106.445,0.000,0
1644798356.124,-108.398,341.797,-49.316,-82.520,0.000,0
1644798356.128,-104.492,-419.434,-74.707,-55.176,0.000,0
1644798356.131,-109.863,-1000.000,-76.660,-57.129,0.000,0
1644798356.135,-133.789,-846.191,-57.129,-94.727,0.000,0
1644798356.139,-117.676,-176.270,-42.969,-102.051,0.000,0
1644798356.143,-88.379,306.641,-48.828,-80.566,0.000,0
1644798356.147,-108.887,220.703,-59.082,-70.801,0.000,0
1644798356.151,-132.812,-474.609,-69.824,-69.824,0.000,0
1644798356.155,-128.418,-1000.000,-64.941,-92.285,0.000,0
1644798356.158,-125.000,-409.668,-42.480,-120.117,0.000,0
1644798356.162,-117.676,545.898,-42.480,-100.586,0.000,0
1644798356.166,-111.816,137.695,-58.105,-75.195,0.000,0
1644798356.170,-116.699,-728.516,-73.730,-62.012,0.000,0
1644798356.174,-131.348,-1000.000,-69.824,-82.520,0.000,0
1644798356.178,-137.207,-479.004,-34.180,-112.305,0.000,0
1644798356.182,-122.559,540.527,-35.645,-98.633,0.000,0
1644798356.185,-114.746,342.773,-64.453,-78.125,0.000,0
1644798356.189,-120.605,-532.227,-77.637,-61.035,0.000,0
1644798356.193,-134.277,-1000.000,-73.242,-75.195,0.000,0
1644798356.197,-130.859,-552.734,-51.270,-107.422,0.000,0
1644798356.201,-116.699,254.883,-42.969,-104.004,0.000,0
1644798356.205,-109.375,303.711,-54.199,-77.637,0.000,0
1644798356.208,-110.352,-417.480,-71.777,-60.547,0.000,0
1644798356.212,-128.906,-980.957,-77.148,-76.660,0.000,0
1644798356.216,-134.277,-1000.000,-62.500,-103.516,0.000,0
1644798356.220,-125.000,-233.887,-44.434,-100.586,0.000,0
1644798356.224,-123.047,564.453,-46.387,-71.289,0.000,0
1644798356.228,-121.582,-179.199,-69.336,-48.340,0.000,0
1644798356.231,-134.277,-1000.000,-77.637,-63.965,0.000,0
1644798356.235,-135.742,-718.262,-50.781,-87.402,0.000,0
1644798356.240,-114.258,405.762,-33.203,-84.961,0.000,0
1644798356.244,-98.633,611.816,-44.434,-68.359,0.000,0
1644798356.247,-107.910,-232.422,-61.035,-51.758,0.000,0
1644798356.251,-130.371,-880.371,-78.613,-62.500,0.000,0
1644798356.255,-141.113,-797.852,-65.430,-104.492,0.000,0
1644798356.259,-125.000,-165.527,-49.805,-107.422,0.000,0
1644798356.263,-108.398,116.211,-59.570,-83.008,0.000,0
1644798356.267,-106.445,-273.438,-67.871,-66.895,0.000,0
1644798356.270,-110.352,-828.613,-70.312,-66.406,0.000,0
1644798356.274,-123.047,-1000.000,-63.965,-86.914,0.000,0
1644798356.278,-119.629,-407.715,-41.992,-84.473,0.000,0
1644798356.282,-106.445,517.090,-34.180,-73.730,0.000,0
1644798356.286,-99.121,165.039,-54.199,-64.941,0.000,0
1644798356.290,-107.422,-744.629,-71.289,-59.570,0.000,0
1644798356.294,-124.512,-988.281,-57.617,-89.844,0.000,0
1644798356.298,-122.070,-80.566,-33.203,-108.887,0.000,0
1644798356.302,-101.074,720.703,-42.480,-82.520,0.000,0
1644798356.306,-100.098,55.664,-56.641,-55.176,0.000,0
1644798356.309,-105.957,-854.004,-57.617,-44.922,0.000,0
1644798356.313,-108.398,-1000.000,-45.898,-60.547,0.000,0
1644798356.317,-123.047,-419.434,-31.250,-83.496,0.000,0
1644798356.321,-107.910,-45.898,-41.016,-67.871,0.000,0
1644798356.325,-104.492,-55.664,-46.875,-39.062,0.000,0
1644798356.329,-107.910,-470.703,-51.758,-36.133,0.000,0
1644798356.333,-103.516,-1000.000,-54.199,-61.035,0.000,0
1644798356.337,-111.816,-512.207,-34.668,-91.309,0.000,0
1644798356.341,-109.375,587.891,-21.484,-66.406,0.000,0
1644798356.344,-103.027,549.805,-31.250,-40.039,0.000,0
1644798356.348,-100.586,-425.781,-46.387,-43.457,0.000,0
1644798356.352,-108.887,-1000.000,-49.805,-61.523,0.000,0
1644798356.356,-118.164,-655.762,-28.809,-100.098,0.000,0
1644798356.360,-107.422,548.340,-20.020,-105.957,0.000,0
1644798356.364,-97.168,191.895,-54.199,-65.430,0.000,0
1644798356.367,-98.633,-991.699,-71.289,-46.875,0.000,0
1644798356.371,-117.188,-1000.000,-51.270,-67.871,0.000,0
1644798356.375,-113.770,-701.660,-34.180,-89.355,0.000,0
1644798356.379,-98.633,109.375,-25.391,-99.609,0.000,0
1644798356.383,-95.703,503.418,-41.504,-82.520,0.000,0
1644798356.387,-111.328,-137.207,-65.918,-66.895,0.000,0
1644798356.391,-118.164,-926.758,-70.312,-73.730,0.000,0
1644798356.395,-114.258,-811.523,-54.199,-91.797,0.000,0
1644798356.399,-113.770,42.480,-34.180,-85.938,0.000,0
1644798356.402,-104.980,359.375,-45.898,-65.430,0.000,0
1644798356.406,-99.121,-368.164,-67.871,-50.781,0.000,0
1644798356.410,-109.863,-1000.000,-62.012,-42.969,0.000,0
1644798356.414,-117.676,-811.035,-35.156,-78.613,0.000,0
1644798356.418,-118.652,260.742,-20.996,-101.074,0.000,0
1644798356.422,-115.723,615.723,-43.457,-70.312,0.000,0
1644798356.426,-103.027,-132.324,-62.012,-47.852,0.000,0
1644798356.430,-104.980,-760.254,-63.965,-49.316,0.000,0
1644798356.434,-118.164,-972.656,-61.523,-75.195,0.000,0
1644798356.437,-110.840,-297.852,-49.805,-90.332,0.000,0
1644798356.441,-96.680,421.387,-54.199,-73.730,0.000,0
1644798356.445,-98.633,-106.934,-69.824,-55.176,0.000,0
1644798356.449,-109.863,-866.699,-68.848,-58.105,0.000,0
1644798356.453,-111.816,-1000.000,-51.758,-81.543,0.000,0
1644798356.457,-100.098,-584.473,-27.344,-87.402,0.000,0
1644798356.460,-97.168,523.438,-16.113,-74.707,0.000,0
1644798356.464,-95.215,396.973,-33.691,-55.664,0.000,0
1644798356.468,-105.469,-638.184,-60.059,-43.945,0.000,0
1644798356.472,-124.023,-1000.000,-68.359,-68.848,0.000,0
1644798356.476,-115.723,-128.906,-46.387,-95.215,0.000,0
1644798356.480,-96.680,714.355,-38.574,-77.637,0.000,0
1644798356.484,-93.750,256.836,-44.434,-56.641,0.000,0
1644798356.488,-95.215,-597.656,-51.758,-42.480,0.000,0
1644798356.491,-106.934,-1000.000,-50.293,-56.152,0.000,0
1644798356.495,-120.117,-544.434,-32.715,-90.332,0.000,0
1644798356.499,-100.586,-141.602,-42.480,-71.289,0.000,0
1644798356.503,-99.609,-342.773,-55.176,-56.152,0.000,0
1644798356.507,-118.652,-636.719,-59.082,-41.016,0.000,0
1644798356.511,-106.934,-1000.000,-62.988,-41.504,0.000,0
1644798356.514,-105.469,-574.219,-42.969,-78.613,0.000,0
1644798356.519,-104.492,555.176,-26.367,-80.078,0.000,0
1644798356.522,-99.121,658.203,-35.645,-58.594,0.000,0
1644798356.526,-104.492,-326.660,-58.105,-36.621,0.000,0
1644798356.530,-113.770,-1000.000,-59.082,-51.270,0.000,0
1644798356.534,-113.281,-616.699,-37.598,-88.379,0.000,0
1644798356.538,-100.586,336.426,-30.762,-88.379,0.000,0
1644798356.542,-92.773,60.547,-55.664,-63.477,0.000,0
1644798356.546,-91.797,-898.926,-72.266,-38.574,0.000,0
1644798356.549,-107.910,-1000.000,-64.941,-53.711,0.000,0
1644798356.553,-122.559,-689.453,-58.594,-97.168,0.000,0
1644798356.557,-107.910,145.996,-40.039,-99.121,0.000,0
1644798356.561,-83.496,530.273,-36.133,-70.801,0.000,0
1644798356.565,-90.820,-24.414,-50.781,-44.922,0.000,0
1644798356.569,-104.980,-871.094,-61.523,-48.340,0.000,0
1644798356.573,-105.957,-847.656,-50.293,-87.891,0.000,0
1644798356.576,-102.539,208.496,-33.691,-105.469,0.000,0
1644798356.580,-105.957,753.906,-42.969,-85.449,0.000,0
1644798356.584,-103.027,-159.668,-73.242,-59.570,0.000,0
1644798356.588,-82.520,-1000.000,-83.008,-43.457,0.000,0
1644798356.592,-99.609,-929.688,-51.270,-76.660,0.000,0
1644798356.596,-116.699,45.898,-24.414,-96.191,0.000,0
1644798356.599,-99.121,605.469,-43.457,-67.383,0.000,0
1644798356.603,-98.145,-86.426,-70.312,-52.246,0.000,0
1644798356.607,-105.957,-809.082,-71.777,-50.781,0.000,0
1644798356.611,-112.305,-895.508,-48.340,-91.309,0.000,0
1644798356.615,-105.957,-194.824,-30.273,-112.305,0.000,0
1644798356.619,-89.355,476.562,-38.574,-86.914,0.000,0
1644798356.623,-104.004,271.973,-49.316,-62.500,0.000,0
1644798356.627,-109.375,-590.820,-64.453,-52.246,0.000,0
1644798356.630,-103.027,-1000.000,-69.336,-70.801,0.000,0
1644798356.634,-106.445,-538.086,-40.039,-79.590,0.000,0
1644798356.638,-104.980,532.227,-28.809,-76.660,0.000,0
1644798356.642,-101.562,362.793,-55.176,-67.871,0.000,0
1644798356.646,-106.934,-640.137,-74.219,-44.922,0.000,0
1644798356.650,-119.141,-1000.000,-61.035,-68.848,0.000,0
1644798356.653,-123.535,-296.387,-38.574,-102.539,0.000,0
1644798356.658,-106.445,668.945,-43.457,-86.426,0.000,0
1644798356.662,-83.984,360.840,-53.223,-58.594,0.000,0
1644798356.666,-83.008,-575.195,-64.453,-50.293,0.000,0
1644798356.669,-99.121,-1000.000,-57.129,-72.754,0.000,0
1644798356.673,-116.211,-510.254,-42.969,-95.215,0.000,0
1644798356.677,-108.398,176.270,-49.316,-79.590,0.000,0
1644798356.681,-101.074,30.762,-49.805,-56.641,0.000,0
1644798356.685,-102.539,-630.371,-55.176,-48.828,0.000,0
1644798356.689,-110.352,-1000.000,-65.430,-72.754,0.000,0
1644798356.692,-118.652,-815.430,-54.688,-102.051,0.000,0
1644798356.696,-104.492,185.059,-39.551,-91.309,0.000,0
1644798356.700,-105.469,483.887,-52.734,-49.316,0.000,0
1644798356.705,-105.957,-378.906,-66.406,-32.227,0.000,0
1644798356.708,-104.492,-1000.000,-59.570,-64.453,0.000,0
1644798356.712,-117.676,-673.340,-39.551,-92.773,0.000,0
1644798356.716,-112.793,452.637,-38.086,-86.426,0.000,0
1644798356.720,-98.633,478.516,-60.059,-62.988,0.000,0
1644798356.724,-100.586,-570.801,-71.777,-49.316,0.000,0
1644798356.728,-101.074,-1000.000,-65.918,-51.758,0.000,0
1644798356.731,-115.234,-784.180,-41.504,-81.543,0.000,0
1644798356.735,-106.934,-330.078,-46.387,-88.379,0.000,0
1644798356.739,-78.125,-283.203,-67.871,-51.758,0.000,0
1644798356.743,-85.938,-318.848,-53.711,-32.227,0.000,0
1644798356.747,-104.980,-827.637,-54.688,-46.875,0.000,0
1644798356.751,-125.000,-932.617,-47.852,-80.078,0.000,0
1644798356.755,-124.512,59.082,-29.297,-85.449,0.000,0
1644798356.759,-96.191,729.492,-38.086,-58.105,0.000,0
1644798356.763,-89.355,65.430,-56.152,-36.133,0.000,0
1644798356.766,-103.027,-838.867,-62.988,-46.387,0.000,0
1644798356.770,-103.027,-1000.000,-54.688,-77.637,0.000,0
1644798356.774,-100.098,-371.094,-38.086,-104.492,0.000,0
1644798356.778,-104.492,278.809,-46.387,-82.031,0.000,0
1644798356.782,-98.633,-447.266,-66.895,-49.316,0.000,0
1644798356.786,-100.098,-1000.000,-62.500,-47.852,0.000,0
1644798356.790,-107.422,-897.461,-53.711,-85.938,0.000,0
1644798356.793,-112.305,-323.242,-45.898,-99.609,0.000,0
1644798356.798,-109.375,356.934,-37.109,-84.473,0.000,0
1644798356.801,-113.281,309.082,-51.758,-74.219,0.000,0
1644798356.805,-120.117,-510.742,-75.195,-65.430,0.000,0
1644798356.809,-123.047,-1000.000,-70.801,-82.031,0.000,0
1644798356.813,-112.793,-391.113,-41.016,-86.426,0.000,0
1644798356.817,-96.680,404.297,-53.223,-59.570,0.000,0
1644798356.821,-99.609,10.254,-76.660,-53.711,0.000,0
1644798356.825,-106.934,-705.566,-63.477,-43.457,0.000,0
1644798356.828,-124.023,-1000.000,-49.805,-62.012,0.000,0
1644798356.832,-140.137,-499.512,-26.855,-118.652,0.000,0
1644798356.836,-120.117,582.031,-25.879,-100.586,0.000,0
1644798356.840,-106.934,301.758,-48.828,-64.453,0.000,0
1644798356.844,-106.934,-643.555,-58.594,-62.988,0.000,0
1644798356.848,-105.469,-1000.000,-52.734,-74.707,0.000,0
1644798356.852,-105.469,-598.633,-50.293,-99.121,0.000,0
1644798356.856,-95.703,273.438,-48.340,-84.473,0.000,0
1644798356.860,-103.516,435.547,-46.875,-63.477,0.000,0
1644798356.863,-108.887,-420.410,-65.430,-58.105,0.000,0
1644798356.867,-111.816,-1000.000,-73.730,-64.453,0.000,0
1644798356.871,-121.582,-1000.000,-54.199,-90.332,0.000,0
1644798356.875,-117.676,-174.316,-29.785,-99.609,0.000,0
1644798356.879,-104.492,522.461,-46.387,-84.473,0.000,0
1644798356.883,-112.793,-252.930,-86.426,-59.570,0.000,0
1644798356.886,-125.488,-1000.000,-89.844,-59.082,0.000,0
1644798356.891,-132.812,-776.855,-67.383,-99.609,0.000,0
1644798356.894,-120.605,278.809,-45.898,-97.656,0.000,0
1644798356.898,-105.957,458.496,-53.223,-57.129,0.000,0
1644798356.902,-109.375,-314.453,-67.383,-58.594,0.000,0
1644798356.906,-129.395,-857.910,-76.660,-84.961,0.000,0
1644798356.910,-146.973,-875.488,-69.824,-122.559,0.000,0
1644798356.914,-125.977,-494.141,-54.199,-108.887,0.000,0
1644798356.918,-102.051,-243.652,-54.688,-67.871,0.000,0
1644798356.921,-118.164,-103.516,-60.059,-75.195,0.000,0
1644798356.925,-127.930,-696.289,-83.496,-79.590,0.000,0
1644798356.929,-119.629,-995.117,-81.543,-105.469,0.000,0
1644798356.933,-119.629,-107.422,-55.176,-117.188,0.000,0
1644798356.937,-113.770,684.570,-54.199,-94.727,0.000,0
1644798356.941,-107.910,255.371,-70.801,-75.684,0.000,0
1644798356.945,-111.816,-741.211,-80.078,-57.617,0.000,0
1644798356.949,-130.371,-987.793,-66.406,-83.008,0.000,0
1644798356.952,-121.094,-184.082,-53.711,-104.492,0.000,0
1644798356.956,-98.633,421.387,-60.547,-72.754,0.000,0
1644798356.960,-90.332,-350.586,-74.219,-45.410,0.000,0
1644798356.964,-103.027,-1000.000,-73.730,-49.805,0.000,0
1644798356.968,-126.465,-970.703,-56.641,-77.148,0.000,0
1644798356.972,-128.906,-437.988,-43.457,-98.633,0.000,1
1644798356.975,-109.863,338.867,-46.387,-80.566,0.000,0
1644798356.979,-98.145,418.457,-54.199,-67.871,0.000,0
1644798356.983,-116.211,-373.535,-68.359,-66.895,0.000,0
1644798356.987,-136.230,-1000.000,-70.801,-83.984,0.000,0
1644798356.991,-132.324,-518.066,-44.922,-111.328,0.000,0
1644798356.995,-115.723,568.359,-26.855,-95.703,0.000,0
1644798356.999,-103.516,537.598,-46.387,-71.289,0.000,0
1644798357.003,-93.750,-486.328,-68.359,-37.598,0.000,0
1644798357.006,-104.004,-1000.000,-58.105,-46.387,0.000,0
1644798357.010,-126.953,-527.832,-35.156,-108.887,0.000,0
1644798357.014,-111.816,412.109,-37.598,-98.633,0.000,0
1644798357.018,-92.773,239.746,-52.246,-63.477,0.000,0
1644798357.022,-98.633,-446.289,-59.570,-57.617,0.000,0
1644798357.026,-109.375,-937.500,-57.129,-71.289,0.000,0
1644798357.030,-113.770,-645.508,-43.457,-84.961,0.000,0
1644798357.034,-111.816,251.465,-41.992,-81.055,0.000,0
1644798357.038,-110.840,570.312,-52.246,-78.613,0.000,0
1644798357.042,-106.934,-19.531,-59.570,-63.965,0.000,0
1644798357.045,-113.281,-838.379,-61.035,-71.289,0.000,0
1644798357.049,-122.070,-908.691,-53.223,-102.539,0.000,0
1644798357.053,-119.629,-107.422,-34.180,-100.586,0.000,0
1644798357.057,-108.887,394.043,-37.598,-77.148,0.000,0
1644798357.061,-98.633,-176.270,-57.129,-51.758,0.000,0
1644798357.065,-98.145,-964.355,-62.012,-54.688,0.000,0
1644798357.069,-119.141,-837.402,-43.457,-100.098,0.000,0
1644798357.072,-114.258,55.664,-32.715,-104.492,0.000,0
1644798357.077,-93.750,335.938,-46.875,-71.777,0.000,0
1644798357.081,-87.891,-159.668,-54.688,-55.176,0.000,0
1644798357.085,-103.027,-779.297,-63.965,-62.500,0.000,0
1644798357.088,-121.582,-858.887,-57.129,-94.727,0.000,0
1644798357.092,-111.328,-168.457,-39.062,-101.562,0.000,0
1644798357.096,-99.609,244.629,-43.457,-74.219,0.000,0
1644798357.100,-118.164,-91.797,-58.594,-53.711,0.000,0
1644798357.104,-119.141,-697.754,-58.594,-65.430,0.000,0
1644798357.108,-98.145,-1000.000,-54.688,-81.543,0.000,0
1644798357.111,-110.352,-610.840,-47.852,-89.355,0.000,0
1644798357.115,-117.188,406.250,-45.410,-86.914,0.000,0
1644798357.119,-114.258,206.055,-64.941,-65.430,0.000,0
1644798357.123,-117.676,-703.125,-72.266,-60.059,0.000,0
1644798357.127,-118.164,-993.652,-61.035,-82.031,0.000,0
1644798357.131,-119.629,-314.453,-49.805,-97.656,0.000,0
1644798357.135,-104.980,382.812,-50.781,-75.684,0.000,0
1644798357.139,-93.750,96.191,-54.199,-54.199,0.000,0
1644798357.143,-92.285,-709.473,-67.871,-47.363,0.000,0
1644798357.147,-103.516,-1000.000,-66.406,-65.430,0.000,0
1644798357.150,-110.352,-607.422,-42.480,-87.402,0.000,0
1644798357.154,-92.773,-172.852,-37.598,-73.242,0.000,0
1644798357.158,-92.773,-19.531,-44.922,-61.035,0.000,0
1644798357.162,-104.980,-314.941,-50.781,-55.664,0.000,0
1644798357.166,-112.305,-1000.000,-63.965,-70.312,0.000,0
1644798357.170,-113.770,-622.070,-51.758,-92.285,0.000,0
1644798357.174,-105.957,487.305,-33.691,-76.172,0.000,0
1644798357.178,-93.750,639.160,-43.457,-61.523,0.000,0
1644798357.182,-87.891,-306.641,-62.500,-55.664,0.000,0
1644798357.185,-100.098,-1000.000,-67.383,-74.707,0.000,0
1644798357.189,-117.188,-828.613,-47.363,-102.539,0.000,0
1644798357.193,-104.980,105.957,-29.785,-87.891,0.000,0
1644798357.197,-85.449,39.551,-45.898,-54.199,0.000,0
1644798357.201,-95.703,-879.395,-59.082,-41.992,0.000,0
1644798357.205,-118.164,-1000.000,-53.711,-57.617,0.000,0
1644798357.209,-117.188,-694.824,-47.852,-88.379,0.000,0
1644798357.212,-98.633,128.906,-35.645,-93.262,0.000,0
1644798357.217,-83.008,565.918,-40.527,-58.594,0.000,0
1644798357.221,-93.262,65.918,-58.105,-32.227,0.000,0
1644798357.225,-108.398,-803.711,-70.312,-40.527,0.000,0
1644798357.229,-104.004,-867.188,-49.805,-76.660,0.000,0
1644798357.232,-99.121,158.203,-26.855,-88.379,0.000,0
1644798357.236,-91.309,548.340,-48.340,-64.453,0.000,0
1644798357.240,-97.168,-278.320,-64.941,-36.133,0.000,0
1644798357.244,-104.980,-952.637,-64.941,-27.344,0.000,0
1644798357.248,-108.398,-931.152,-45.898,-80.078,0.000,0
1644798357.252,-104.004,-131.836,-27.832,-110.840,0.000,0
1644798357.255,-90.820,464.844,-39.551,-79.102,0.000,0
1644798357.259,-98.145,35.156,-53.223,-54.199,0.000,0
1644798357.264,-110.840,-657.715,-59.082,-54.199,0.000,0
1644798357.267,-113.770,-880.859,-55.176,-77.148,0.000,0
1644798357.271,-110.352,-229.004,-40.527,-87.402,0.000,0
1644798357.275,-103.027,505.859,-41.016,-74.707,0.000,0
1644798357.279,-109.863,328.125,-56.152,-57.129,0.000,0
1644798357.283,-106.445,-668.945,-66.895,-40.039,0.000,0
1644798357.287,-97.168,-1000.000,-59.570,-65.918,0.000,0
1644798357.290,-107.422,-341.309,-36.133,-98.633,0.000,0
1644798357.294,-109.863,642.578,-33.203,-76.660,0.000,0
1644798357.298,-103.516,442.383,-49.805,-50.293,0.000,0
1644798357.302,-99.121,-535.156,-62.988,-24.902,0.000,0
1644798357.306,-112.793,-1000.000,-57.129,-50.781,0.000,0
1644798357.310,-124.023,-548.828,-30.273,-90.820,0.000,0
1644798357.314,-115.723,478.027,-30.273,-68.359,0.000,0
1644798357.318,-103.027,362.305,-49.316,-47.363,0.000,0
1644798357.322,-105.469,-474.609,-63.477,-45.410,0.000,0
1644798357.325,-123.535,-1000.000,-59.570,-63.477,0.000,0
1644798357.329,-117.188,-651.855,-39.551,-87.891,0.000,0
1644798357.333,-101.074,-221.191,-40.039,-72.754,0.000,0
1644798357.337,-95.703,-274.414,-44.434,-52.246,0.000,0
1644798357.341,-106.445,-430.664,-48.340,-48.828,0.000,0
1644798357.345,-128.418,-978.516,-59.082,-64.941,0.000,0
1644798357.348,-130.371,-687.012,-45.410,-91.309,0.000,0
1644798357.352,-110.352,468.750,-30.762,-88.379,0.000,0
1644798357.356,-98.145,760.254,-42.969,-67.383,0.000,0
1644798357.360,-101.074,-177.246,-62.500,-48.828,0.000,0
1644798357.364,-107.422,-1000.000,-65.918,-42.969,0.000,0
1644798357.368,-114.258,-811.035,-43.457,-75.684,0.000,0
1644798357.372,-103.516,303.223,-20.020,-90.332,0.000,0
1644798357.376,-86.426,245.605,-36.621,-48.340,0.000,0
1644798357.380,-87.402,-809.082,-58.105,-26.855,0.000,0
1644798357.383,-101.562,-1000.000,-54.688,-56.152,0.000,0
1644798357.387,-118.164,-744.141,-43.457,-97.168,0.000,0
1644798357.391,-112.305,-88.867,-33.203,-98.145,0.000,0
1644798357.395,-100.098,384.766,-37.109,-73.242,0.000,0
1644798357.399,-106.934,100.098,-52.246,-60.059,0.000,0
1644798357.403,-121.094,-742.676,-62.988,-50.293,0.000,0
1644798357.407,-127.441,-920.410,-50.293,-83.496,0.000,0
1644798357.411,-119.141,44.434,-34.668,-105.469,0.000,0
1644798357.415,-105.957,797.852,-44.922,-79.590,0.000,0
1644798357.419,-96.680,228.027,-56.152,-41.992,0.000,0
1644798357.422,-93.262,-778.320,-65.918,-40.039,0.000,0
1644798357.426,-97.656,-1000.000,-52.734,-79.102,0.000,0
1644798357.430,-107.422,-382.324,-30.762,-91.309,0.000,0
1644798357.434,-107.910,289.062,-38.086,-73.730,0.000,0
1644798357.438,-108.887,-350.098,-54.199,-72.266,0.000,0
1644798357.442,-117.676,-990.723,-56.152,-73.730,0.000,0
1644798357.446,-131.348,-912.598,-42.480,-92.773,0.000,0
1644798357.450,-147.461,-365.723,-34.668,-130.859,0.000,0
1644798357.454,-140.137,377.441,-40.039,-120.117,0.000,0
1644798357.458,-143.555,427.246,-46.875,-100.098,0.000,0
1644798357.462,-165.527,-433.594,-57.617,-115.723,0.000,0
1644798357.465,-187.012,-1000.000,-61.523,-153.320,0.000,0
1644798357.469,-199.219,-621.582,-38.086,-173.340,0.000,0
1644798357.473,-207.031,266.602,-25.391,-172.363,0.000,0
1644798357.477,-217.773,421.875,-38.574,-180.664,0.000,0
1644798357.481,-223.145,-449.707,-61.035,-171.875,0.000,0
1644798357.485,-248.047,-1000.000,-68.359,-184.082,0.000,0
1644798357.488,-273.438,-475.586,-40.527,-230.469,0.000,0
1644798357.492,-259.766,603.516,-31.250,-239.746,0.000,0
1644798357.497,-253.906,495.117,-48.828,-206.543,0.000,0
1644798357.501,-259.277,-367.188,-59.082,-178.223,0.000,0
1644798357.504,-273.926,-970.215,-53.223,-207.031,0.000,0
1644798357.508,-276.855,-637.207,-36.133,-240.234,0.000,0
1644798357.512,-259.277,228.027,-27.832,-219.238,0.000,0
1644798357.516,-235.840,225.586,-43.945,-170.898,0.000,0
1644798357.520,-220.703,-570.801,-60.547,-155.273,0.000,0
1644798357.524,-222.168,-1000.000,-58.594,-166.504,0.000,0
1644798357.527,-206.055,-1000.000,-41.016,-164.062,0.000,0
1644798357.531,-174.316,-104.980,-20.020,-153.320,0.000,0
1644798357.535,-149.414,625.977,-35.645,-130.371,0.000,0
1644798357.539,-139.160,-298.340,-64.453,-95.215,0.000,0
1644798357.543,-131.348,-1000.000,-64.453,-77.637,0.000,0
1644798357.547,-139.160,-788.574,-47.363,-106.934,0.000,0
1644798357.551,-130.371,193.848,-35.156,-114.258,0.000,0
1644798357.555,-114.258,484.863,-47.363,-85.449,0.000,0
1644798357.559,-113.281,-205.566,-59.082,-46.387,0.000,0
1644798357.563,-99.121,-851.074,-62.988,-26.855,0.000,0
1644798357.566,-100.098,-908.691,-50.781,-56.641,0.000,0
1644798357.570,-106.934,-458.008,-33.203,-76.660,0.000,0
1644798357.574,-88.867,-87.891,-38.086,-59.082,0.000,0
1644798357.578,-83.984,30.273,-44.434,-42.480,0.000,0
1644798357.582,-99.609,-630.859,-55.176,-39.551,0.000,0
1644798357.586,-105.957,-1000.000,-49.316,-51.758,0.000,0
1644798357.590,-100.586,-97.656,-26.855,-58.594,0.000,0
1644798357.594,-81.055,791.992,-32.227,-50.293,0.000,0
1644798357.598,-66.895,328.613,-51.270,-19.531,0.000,0
1644798357.602,-78.613,-714.844,-64.941,3.906,0.000,0
1644798357.605,-81.543,-983.398,-55.664,-29.297,0.000,0
1644798357.609,-68.359,-336.914,-39.062,-52.246,0.000,0
1644798357.613,-54.199,326.172,-42.969,-32.227,0.000,0
1644798357.617,-41.016,-294.434,-55.664,-3.418,0.000,0
1644798357.621,-51.270,-1000.000,-55.664,8.301,0.000,0
1644798357.625,-78.125,-946.289,-52.734,-15.137,0.000,0
1644798357.628,-62.012,-461.914,-45.410,-41.504,0.000,0
1644798357.632,-36.621,379.395,-36.133,-36.621,0.000,0
1644798357.637,-43.457,506.348,-47.363,-18.555,0.000,0
1644798357.640,-56.641,-290.527,-65.430,-8.789,0.000,0
1644798357.644,-67.383,-1000.000,-74.219,-19.531,0.000,0
1644798357.648,-75.195,-538.574,-56.152,-45.410,0.000,0
1644798357.652,-64.453,573.242,-35.156,-51.270,0.000,0
1644798357.656,-47.363,371.094,-49.805,-41.016,0.000,0
1644798357.660,-55.664,-597.656,-73.242,-20.996,0.000,0
1644798357.664,-75.195,-1000.000,-67.383,-17.578,0.000,0
1644798357.667,-76.660,-615.234,-34.180,-52.246,0.000,0
1644798357.671,-57.617,479.980,-25.879,-41.504,0.000,0
1644798357.675,-45.898,509.277,-33.203,-6.836,0.000,0
1644798357.679,-65.918,-272.461,-46.875,7.324,0.000,0
1644798357.683,-90.332,-890.625,-54.199,-12.695,0.000,0
1644798357.687,-84.961,-700.684,-43.457,-60.059,0.000,0
1644798357.691,-68.848,195.801,-38.086,-54.199,0.000,0
1644798357.695,-60.547,541.504,-44.922,-21.973,0.000,0
1644798357.699,-66.895,-42.969,-62.500,-11.230,0.000,0
1644798357.702,-75.195,-821.289,-76.660,-11.719,0.000,0
1644798357.706,-73.242,-1000.000,-64.941,-28.809,0.000,2
1644798357.710,-69.336,-327.637,-31.738,-45.898,0.000,0
1644798357.714,-64.941,548.340,-31.250,-38.086,0.000,0
1644798357.718,-68.848,-110.840,-57.617,-15.625,0.000,0
1644798357.722,-83.008,-1000.000,-65.918,-20.020,0.000,0
1644798357.725,-92.285,-853.027,-49.805,-63.477,0.000,0
1644798357.730,-83.984,189.941,-33.203,-79.102,0.000,0
1644798357.733,-72.754,599.121,-44.922,-44.922,0.000,0
1644798357.737,-77.148,0.488,-55.176,-23.926,0.000,0
1644798357.741,-83.008,-678.223,-56.152,-31.738,0.000,0
1644798357.745,-97.168,-871.582,-54.688,-56.641,0.000,0
1644798357.749,-97.656,-474.121,-37.598,-57.129,0.000,0
1644798357.753,-85.938,-202.637,-40.039,-35.156,0.000,0
1644798357.757,-95.703,24.902,-50.293,-39.062,0.000,0
1644798357.760,-102.539,-538.574,-62.988,-41.016,0.000,0
1644798357.764,-102.539,-1000.000,-56.152,-45.898,0.000,0
1644798357.768,-103.027,-297.363,-30.273,-75.195,0.000,0
1644798357.772,-94.727,668.945,-33.691,-79.590,0.000,0
1644798357.776,-92.773,209.961,-55.176,-61.523,0.000,0
1644798357.780,-100.098,-714.844,-64.453,-50.293,0.000,0
1644798357.784,-112.305,-1000.000,-55.176,-68.359,0.000,0
1644798357.788,-113.281,-307.129,-35.645,-95.703,0.000,0
1644798357.792,-93.750,610.840,-32.715,-83.496,0.000,0
1644798357.796,-82.520,94.238,-47.363,-45.898,0.000,0
1644798357.799,-83.008,-786.133,-63.477,-36.133,0.000,0
1644798357.803,-100.098,-1000.000,-62.012,-65.430,0.000,0
1644798357.807,-102.539,-567.383,-43.457,-89.355,0.000,0
1644798357.811,-84.473,-23.438,-36.621,-68.359,0.000,0
1644798357.815,-74.707,162.109,-34.180,-46.387,0.000,0
1644798357.819,-83.496,-278.320,-49.805,-33.691,0.000,0
1644798357.823,-97.168,-1000.000,-63.477,-49.316,0.000,0
1644798357.827,-103.516,-663.574,-44.922,-91.797,0.000,0
1644798357.831,-107.422,408.203,-29.785,-93.750,0.000,0
1644798357.835,-87.402,422.852,-43.457,-61.523,0.000,0
1644798357.839,-81.543,-500.488,-56.152,-47.363,0.000,0
1644798357.842,-100.098,-1000.000,-58.105,-61.523,0.000,0
1644798357.846,-108.398,-776.367,-38.086,-85.449,0.000,0
1644798357.850,-100.098,366.699,-23.926,-87.891,0.000,0
1644798357.854,-89.355,276.367,-44.434,-60.547,0.000,0
1644798357.858,-91.309,-821.777,-59.570,-37.109,0.000,0
1644798357.862,-116.211,-1000.000,-51.270,-55.664,0.000,0
1644798357.866,-120.605,-730.469,-40.039,-81.543,0.000,0
1644798357.870,-101.074,6.348,-34.668,-80.566,0.000,0
1644798357.874,-103.516,511.230,-37.109,-62.012,0.000,0
1644798357.878,-116.211,144.043,-48.828,-44.434,0.000,0
1644798357.881,-124.512,-732.422,-61.035,-51.270,0.000,0
1644798357.885,-121.094,-898.438,-51.758,-74.707,0.000,0
1644798357.889,-107.422,-192.871,-38.574,-65.918,0.000,0
1644798357.893,-103.516,322.266,-45.410,-55.176,0.000,0
1644798357.897,-94.238,-200.684,-62.988,-46.387,0.000,0
1644798357.901,-98.145,-961.426,-67.871,-20.020,0.000,0
1644798357.905,-108.398,-919.434,-41.504,-53.223,0.000,0
1644798357.908,-113.281,9.277,-22.461,-102.051,0.000,0
1644798357.912,-94.238,587.891,-39.062,-83.984,0.000,0
1644798357.917,-85.449,59.570,-56.641,-54.199,0.000,0
1644798357.920,-101.562,-648.438,-62.500,-47.852,0.000,0
1644798357.924,-118.652,-909.668,-60.059,-79.590,0.000,0
1644798357.928,-106.445,-354.980,-44.922,-96.680,0.000,0
1644798357.932,-89.844,409.668,-38.574,-75.684,0.000,0
1644798357.936,-90.820,204.102,-42.480,-57.129,0.000,0
1644798357.940,-91.797,-713.867,-54.199,-49.805,0.000,0
1644798357.944,-104.004,-1000.000,-62.500,-69.336,0.000,0
1644798357.947,-99.121,-675.293,-45.410,-91.309,0.000,0
1644798357.951,-92.285,260.254,-30.273,-78.613,0.000,0
1644798357.955,-97.168,371.582,-48.828,-58.594,0.000,0
1644798357.959,-97.656,-516.113,-59.570,-49.316,0.000,0
1644798357.963,-104.004,-1000.000,-51.758,-70.312,0.000,0
1644798357.967,-115.234,-393.066,-44.434,-98.633,0.000,0
1644798357.971,-100.586,561.035,-41.992,-83.496,0.000,0
1644798357.975,-93.262,412.598,-49.316,-64.453,0.000,0
1644798357.979,-97.168,-392.090,-59.082,-56.641,0.000,0
1644798357.983,-97.168,-1000.000,-62.988,-75.684,0.000,0
1644798357.986,-99.609,-723.633,-44.922,-99.121,0.000,0
1644798357.990,-91.309,-327.637,-40.039,-80.078,0.000,0
1644798357.994,-91.797,-41.504,-44.434,-62.012,0.000,0
1644798357.998,-92.773,-159.180,-53.711,-56.152,0.000,0
1644798358.002,-104.492,-930.664,-70.312,-61.523,0.000,0
1644798358.006,-117.188,-750.977,-62.012,-86.914,0.000,0
1644798358.010,-103.027,165.039,-39.551,-82.031,0.000,0
1644798358.014,-93.262,599.121,-41.016,-67.383,0.000,0
1644798358.018,-92.285,-147.949,-61.523,-48.340,0.000,0
1644798358.021,-87.891,-1000.000,-62.500,-45.898,0.000,0
1644798358.025,-97.168,-807.617,-50.293,-78.125,0.000,0
1644798358.029,-93.750,89.355,-36.133,-88.867,0.000,0
1644798358.033,-79.590,119.141,-47.852,-65.918,0.000,0
1644798358.037,-87.402,-772.949,-62.988,-41.504,0.000,0
1644798358.041,-105.957,-1000.000,-57.617,-52.734,0.000,0
1644798358.045,-120.605,-839.355,-48.340,-84.961,0.000,0
1644798358.048,-110.840,-184.570,-29.785,-89.844,0.000,0
1644798358.052,-96.191,498.535,-29.297,-64.453,0.000,0
1644798358.057,-95.215,221.680,-51.758,-52.734,0.000,0
1644798358.060,-97.168,-677.734,-62.500,-52.734,0.000,0
1644798358.064,-109.375,-967.285,-51.270,-75.195,0.000,0
1644798358.068,-105.957,-274.414,-44.434,-90.332,0.000,0
1644798358.072,-94.238,536.621,-47.852,-72.266,0.000,0
1644798358.076,-97.168,109.375,-57.129,-47.852,0.000,0
1644798358.080,-97.168,-847.168,-65.430,-40.527,0.000,0
1644798358.083,-115.234,-1000.000,-50.293,-77.637,0.000,0
1644798358.087,-132.812,-212.891,-27.832,-102.539,0.000,0
1644798358.091,-99.121,577.148,-38.574,-77.148,0.000,0
1644798358.095,-86.426,29.785,-59.082,-51.270,0.000,0
1644798358.099,-100.586,-687.988,-64.941,-49.316,0.000,0
1644798358.103,-102.051,-939.941,-54.199,-68.359,0.000,0
1644798358.107,-108.887,-388.672,-37.598,-82.520,0.000,0
1644798358.111,-89.844,424.805,-37.598,-70.801,0.000,0
1644798358.115,-82.520,502.930,-48.340,-45.898,0.000,0
1644798358.118,-93.750,-320.312,-62.500,-43.457,0.000,0
1644798358.122,-96.191,-1000.000,-68.359,-54.688,0.000,0
1644798358.126,-101.074,-802.734,-43.457,-67.871,0.000,0
1644798358.130,-90.332,206.055,-20.020,-75.684,0.000,0
1644798358.134,-89.355,547.363,-32.715,-60.547,0.000,0
1644798358.138,-112.793,-401.855,-54.199,-56.641,0.000,0
1644798358.142,-135.742,-1000.000,-47.363,-79.102,0.000,0
1644798358.145,-126.953,-456.543,-27.832,-109.375,0.000,0
1644798358.150,-104.492,654.297,-30.762,-98.145,0.000,0
1644798358.154,-107.422,617.188,-43.457,-74.219,0.000,0
1644798358.158,-96.680,-111.816,-51.270,-50.781,0.000,0
1644798358.162,-94.238,-804.199,-49.316,-43.457,0.000,0
1644798358.166,-99.121,-601.074,-37.598,-70.312,0.000,0
1644798358.169,-83.984,191.406,-27.832,-64.941,0.000,0
1644798358.173,-77.637,221.191,-36.133,-41.992,0.000,0
1644798358.177,-85.938,-502.930,-52.246,-39.062,0.000,0
1644798358.181,-99.121,-1000.000,-57.617,-55.664,0.000,0
1644798358.185,-99.609,-929.199,-39.551,-83.008,0.000,0
1644798358.189,-97.656,-21.973,-24.414,-91.797,0.000,0
1644798358.193,-106.445,598.145,-41.016,-77.148,0.000,0
1644798358.197,-111.816,-225.098,-62.012,-57.617,0.000,0
1644798358.201,-118.164,-1000.000,-70.801,-59.082,0.000,0
1644798358.205,-125.488,-821.289,-49.805,-86.914,0.000,0
1644798358.209,-109.375,198.730,-34.668,-96.191,0.000,0
1644798358.212,-101.562,561.035,-50.781,-71.289,0.000,0
1644798358.216,-109.863,-358.398,-61.523,-44.922,0.000,0
1644798358.220,-118.652,-1000.000,-62.988,-52.734,0.000,0
1644798358.224,-127.441,-796.387,-56.641,-91.797,0.000,0
1644798358.228,-126.465,-204.590,-50.293,-95.215,0.000,0
1644798358.232,-114.746,359.863,-48.828,-78.613,0.000,0
1644798358.236,-116.699,233.398,-55.176,-56.152,0.000,0
1644798358.239,-125.000,-603.027,-75.195,-39.062,0.000,0
1644798358.244,-124.023,-1000.000,-74.707,-64.941,0.000,0
1644798358.248,-122.070,-456.543,-44.434,-80.078,0.000,0
1644798358.251,-112.793,709.961,-29.785,-62.012,0.000,0
1644798358.255,-104.004,436.035,-47.852,-45.410,0.000,0
1644798358.259,-102.051,-644.531,-60.059,-41.992,0.000,0
1644798358.263,-100.098,-1000.000,-49.805,-59.570,0.000,0
1644798358.267,-113.770,-403.320,-36.621,-84.961,0.000,0
1644798358.271,-111.328,444.336,-41.992,-72.754,0.000,0
1644798358.275,-96.680,-116.699,-54.199,-40.527,0.000,0
1644798358.278,-106.445,-916.016,-57.617,-34.668,0.000,0
1644798358.282,-119.141,-927.734,-48.828,-63.965,0.000,0
1644798358.286,-114.258,-360.840,-41.016,-88.867,0.000,0
1644798358.291,-95.215,550.293,-37.109,-72.266,0.000,0
1644798358.294,-88.867,690.430,-44.922,-60.059,0.000,0
1644798358.298,-101.074,-179.688,-65.430,-52.734,0.000,0
1644798358.302,-96.191,-1000.000,-64.453,-49.805,0.000,0
1644798358.306,-83.496,-487.793,-34.668,-65.430,0.000,0
1644798358.310,-79.102,481.934,-25.879,-60.059,0.000,0
1644798358.314,-85.938,292.969,-45.410,-48.340,0.000,0
1644798358.317,-93.262,-559.570,-66.895,-28.809,0.000,0
1644798358.321,-92.285,-1000.000,-65.918,-40.527,0.000,0
1644798358.325,-102.051,-633.301,-35.156,-91.309,0.000,0
1644798358.329,-98.145,406.738,-32.715,-83.008,0.000,0
1644798358.333,-85.938,447.754,-48.340,-37.109,0.000,0
1644798358.337,-94.238,-384.766,-55.176,-41.504,0.000,0
1644798358.341,-100.098,-971.680,-58.594,-68.848,0.000,0
1644798358.345,-96.680,-804.199,-47.363,-84.473,0.000,0
1644798358.349,-87.402,46.875,-30.273,-83.984,0.000,0
1644798358.353,-83.496,439.453,-36.621,-58.105,0.000,0
1644798358.356,-85.449,-405.273,-62.012,-32.227,0.000,0
1644798358.360,-83.496,-1000.000,-65.430,-34.180,0.000,0
1644798358.364,-86.426,-1000.000,-52.246,-58.594,0.000,0
1644798358.368,-91.309,-479.980,-28.809,-72.754,0.000,0
1644798358.372,-97.656,455.078,-23.926,-61.523,0.000,0
1644798358.376,-89.355,-72.266,-47.852,-30.762,0.000,0
1644798358.380,-83.008,-988.770,-52.734,-27.832,0.000,0
1644798358.384,-100.586,-916.016,-36.621,-64.453,0.000,0
1644798358.388,-106.445,37.109,-26.855,-82.520,0.000,0
1644798358.392,-95.703,493.652,-38.574,-72.754,0.000,0
1644798358.395,-83.496,-75.195,-48.828,-54.199,0.000,0
1644798358.399,-93.750,-693.359,-54.688,-54.688,0.000,0
1644798358.403,-106.445,-979.004,-58.594,-92.285,0.000,0
1644798358.407,-97.168,-669.434,-43.945,-86.426,0.000,0
1644798358.411,-81.543,-166.504,-35.156,-56.152,0.000,0
1644798358.415,-84.961,90.820,-38.574,-53.711,0.000,0
1644798358.419,-93.750,-592.285,-59.570,-56.152,0.000,0
1644798358.422,-104.004,-1000.000,-53.223,-83.008,0.000,0
1644798358.426,-109.375,-338.867,-27.344,-107.910,0.000,0
1644798358.430,-105.469,584.473,-27.832,-80.566,0.000,0
1644798358.434,-107.910,368.652,-43.945,-62.500,0.000,0
1644798358.438,-112.305,-604.004,-53.223,-56.641,0.000,0
1644798358.442,-116.211,-1000.000,-44.434,-70.312,0.000,0
1644798358.446,-126.953,-436.035,-33.203,-99.121,0.000,0
1644798358.450,-109.863,353.516,-29.785,-82.031,0.000,0
1644798358.454,-88.379,-301.270,-43.457,-50.293,0.000,0
1644798358.457,-97.168,-1000.000,-53.223,-45.898,0.000,0
1644798358.461,-113.281,-991.699,-48.828,-62.500,0.000,0
1644798358.465,-118.164,-645.020,-37.109,-83.984,0.000,0
1644798358.469,-106.445,208.984,-30.762,-83.984,0.000,0
1644798358.473,-93.262,500.977,-37.109,-62.012,0.000,0
1644798358.477,-98.145,-351.562,-54.688,-50.781,0.000,0
1644798358.481,-122.070,-1000.000,-59.082,-65.430,0.000,0
1644798358.485,-136.719,-696.289,-42.480,-102.051,0.000,0
1644798358.489,-123.535,344.727,-31.250,-101.074,0.000,0
1644798358.492,-113.281,545.410,-49.805,-69.824,0.000,0
1644798358.496,-96.680,-430.176,-72.754,-46.875,0.000,0
1644798358.500,-98.633,-1000.000,-62.012,-59.082,0.000,0
1644798358.504,-119.629,-760.742,-35.645,-99.609,0.000,0
1644798358.508,-114.258,301.758,-27.344,-106.934,0.000,0
1644798358.512,-97.656,220.703,-46.387,-65.430,0.000,0
1644798358.516,-105.469,-645.508,-63.477,-49.805,0.000,0
1644798358.519,-115.234,-894.531,-62.012,-72.266,0.000,0
1644798358.524,-105.957,-822.266,-41.992,-90.820,0.000,0
1644798358.528,-113.770,-83.496,-22.949,-85.449,0.000,0
1644798358.532,-113.281,493.164,-33.691,-53.223,0.000,0
1644798358.535,-96.680,-83.496,-52.246,-44.922,0.000,0
1644798358.539,-111.816,-946.289,-57.129,-58.594,0.000,0
1644798358.543,-130.859,-979.004,-45.410,-86.914,0.000,0
1644798358.547,-114.258,-367.188,-34.180,-94.238,0.000,0
1644798358.551,-113.770,224.609,-39.551,-85.449,0.000,0
1644798358.555,-120.605,-66.406,-53.223,-72.754,0.000,1
1644798358.559,-113.770,-830.566,-69.824,-54.199,0.000,0
1644798358.562,-133.789,-995.117,-58.105,-84.961,0.000,0
1644798358.566,-135.254,-132.324,-31.738,-109.375,0.000,0
1644798358.571,-113.770,415.039,-38.574,-78.613,0.000,0
1644798358.575,-110.840,17.578,-51.758,-55.664,0.000,0
1644798358.578,-119.141,-598.633,-56.641,-43.457,0.000,0
1644798358.582,-127.930,-950.684,-54.688,-63.965,0.000,0
1644798358.586,-115.234,-354.980,-45.898,-99.121,0.000,0
1644798358.590,-103.516,227.051,-50.781,-82.520,0.000,0
1644798358.594,-113.770,-21.973,-66.406,-45.410,0.000,0
1644798358.598,-119.141,-683.594,-72.754,-42.969,0.000,0
1644798358.602,-130.371,-1000.000,-72.754,-82.520,0.000,0
1644798358.605,-128.418,-674.805,-52.734,-102.539,0.000,0
1644798358.609,-104.492,400.879,-33.691,-88.379,0.000,0
1644798358.613,-99.121,506.348,-54.688,-70.801,0.000,0
1644798358.618,-118.652,-458.984,-73.242,-56.152,0.000,0
1644798358.621,-130.371,-1000.000,-68.848,-64.941,0.000,0
1644798358.625,-132.324,-466.797,-52.246,-104.980,0.000,0
1644798358.629,-121.094,467.773,-49.805,-90.820,0.000,0
1644798358.633,-103.027,272.461,-61.035,-60.547,0.000,0
1644798358.637,-105.469,-561.523,-67.871,-56.641,0.000,0
1644798358.641,-132.812,-1000.000,-71.289,-64.453,0.000,0
1644798358.645,-134.277,-771.484,-51.758,-90.332,0.000,0
1644798358.648,-105.469,-409.180,-32.715,-82.520,0.000,0
1644798358.652,-108.398,-250.977,-43.457,-70.312,0.000,0
1644798358.656,-117.188,-420.898,-60.547,-55.664,0.000,0
1644798358.660,-108.398,-950.195,-67.871,-51.270,0.000,0
1644798358.664,-128.418,-747.070,-54.688,-103.516,0.000,0
1644798358.668,-129.395,239.746,-35.156,-103.027,0.000,0
1644798358.672,-107.910,679.199,-47.363,-68.359,0.000,0
1644798358.676,-113.770,-61.523,-62.988,-43.945,0.000,0
1644798358.680,-121.582,-944.336,-69.824,-55.176,0.000,0
1644798358.684,-121.094,-924.805,-55.664,-97.168,0.000,0
1644798358.687,-127.930,-99.121,-38.086,-110.352,0.000,0
1644798358.691,-118.164,44.922,-50.781,-83.496,0.000,0
1644798358.695,-112.305,-696.289,-63.965,-55.664,0.000,0
1644798358.699,-129.395,-913.574,-59.082,-74.219,0.000,0
1644798358.703,-130.371,-859.375,-50.293,-99.609,0.000,0
1644798358.707,-117.676,-196.289,-36.133,-88.867,0.000,0
1644798358.711,-104.980,301.270,-41.992,-71.289,0.000,0
1644798358.715,-98.633,76.172,-52.246,-55.176,0.000,0
1644798358.719,-111.816,-578.125,-63.477,-49.805,0.000,0
1644798358.723,-122.559,-953.613,-60.059,-76.172,0.000,0
1644798358.726,-120.605,-196.777,-34.180,-81.543,0.000,0
1644798358.730,-110.352,407.715,-31.250,-50.781,0.000,0
1644798358.734,-103.027,-37.109,-51.758,-43.945,0.000,0
1644798358.738,-95.215,-807.129,-75.195,-43.945,0.000,0
1644798358.742,-115.234,-1000.000,-57.617,-84.961,0.000,0
1644798358.746,-117.188,-276.367,-31.250,-114.258,0.000,0
1644798358.750,-89.844,459.473,-39.062,-75.195,0.000,0
1644798358.753,-112.793,214.844,-54.199,-52.734,0.000,0
1644798358.758,-120.605,-442.383,-70.801,-50.781,0.000,0
1644798358.762,-126.465,-939.941,-68.848,-79.590,0.000,0
1644798358.765,-125.000,-535.645,-48.340,-100.586,0.000,0
1644798358.769,-98.145,156.738,-45.410,-80.078,0.000,0
1644798358.773,-96.680,211.426,-48.340,-60.547,0.000,0
1644798358.777,-107.422,-504.883,-62.988,-50.293,0.000,0
1644798358.781,-106.934,-1000.000,-69.336,-63.965,0.000,0
1644798358.785,-112.793,-770.020,-42.480,-85.938,0.000,0
1644798358.789,-110.352,239.746,-20.020,-78.613,0.000,0
1644798358.792,-100.586,585.449,-37.598,-56.152,0.000,0
1644798358.796,-107.910,-338.867,-60.547,-41.992,0.000,0
1644798358.800,-115.234,-1000.000,-57.129,-57.617,0.000,0
1644798358.804,-118.164,-645.996,-38.574,-98.145,0.000,0
1644798358.808,-105.957,328.613,-36.133,-100.586,0.000,0
1644798358.812,-84.961,428.223,-49.805,-72.266,0.000,0
1644798358.816,-103.516,-225.098,-65.430,-54.199,0.000,0
1644798358.820,-122.559,-862.305,-71.289,-62.988,0.000,0
1644798358.824,-116.699,-857.422,-56.641,-82.520,0.000,0
1644798358.827,-117.188,-535.156,-46.387,-77.637,0.000,0
1644798358.831,-119.629,-303.223,-51.270,-65.430,0.000,0
1644798358.835,-121.094,-331.543,-62.500,-64.453,0.000,0
1644798358.839,-126.953,-864.746,-70.312,-56.641,0.000,0
1644798358.843,-130.371,-875.000,-51.270,-82.520,0.000,0
1644798358.847,-115.234,48.828,-28.809,-91.797,0.000,0
1644798358.851,-106.934,681.641,-32.227,-71.777,0.000,0
1644798358.855,-105.957,-1.465,-54.199,-58.594,0.000,0
1644798358.859,-109.863,-934.570,-70.312,-53.223,0.000,0
1644798358.862,-121.582,-916.504,-52.734,-83.008,0.000,0
1644798358.866,-109.863,53.223,-38.574,-92.285,0.000,0
1644798358.870,-89.355,244.141,-53.223,-65.430,0.000,0
1644798358.874,-101.074,-493.652,-61.035,-47.363,0.000,0
1644798358.878,-120.605,-769.531,-59.082,-61.523,0.000,0
1644798358.882,-124.023,-851.562,-56.641,-94.238,0.000,0
1644798358.886,-121.094,-438.477,-43.457,-98.633,0.000,0
1644798358.889,-115.234,291.504,-30.762,-80.078,0.000,0
1644798358.893,-114.746,396.484,-44.434,-70.312,0.000,0
1644798358.898,-117.676,-482.910,-70.801,-67.383,0.000,0
1644798358.902,-128.906,-1000.000,-68.848,-95.215,0.000,0
1644798358.906,-132.324,-299.316,-43.457,-104.004,0.000,0
1644798358.909,-119.629,661.133,-36.621,-77.148,0.000,0
1644798358.913,-104.980,426.270,-56.152,-61.523,0.000,0
1644798358.917,-104.492,-576.660,-72.266,-60.059,0.000,0
1644798358.921,-129.883,-1000.000,-69.336,-94.238,0.000,0
1644798358.925,-132.324,-624.023,-50.781,-102.051,0.000,0
1644798358.929,-108.887,329.590,-46.875,-78.125,0.000,0
1644798358.933,-107.910,91.309,-54.199,-63.477,0.000,0
1644798358.936,-117.676,-627.441,-56.641,-43.457,0.000,0
1644798358.940,-127.441,-937.012,-58.105,-72.266,0.000,0
1644798358.945,-116.699,-707.031,-49.316,-108.887,0.000,0
1644798358.949,-106.934,9.277,-44.922,-92.773,0.000,0
1644798358.952,-116.211,434.082,-44.922,-63.965,0.000,0
1644798358.956,-113.281,-131.836,-59.570,-48.340,0.000,0
1644798358.960,-118.652,-894.531,-67.383,-52.734,0.000,0
1644798358.964,-127.930,-815.918,-54.199,-79.590,0.000,0
1644798358.968,-128.906,72.266,-44.434,-85.449,0.000,0
1644798358.972,-116.699,570.312,-46.387,-64.453,0.000,0
1644798358.976,-102.539,-268.066,-62.988,-23.438,0.000,0
1644798358.979,-116.699,-1000.000,-69.336,-34.668,0.000,0
1644798358.983,-138.184,-732.422,-44.434,-96.191,0.000,0
1644798358.987,-126.465,266.113,-36.621,-94.238,0.000,0
1644798358.991,-116.699,469.727,-48.340,-65.918,0.000,0
1644798358.995,-115.723,-91.797,-56.152,-51.758,0.000,0
1644798358.999,-114.746,-725.098,-72.266,-64.453,0.000,0
1644798359.003,-116.699,-884.277,-64.941,-95.703,0.000,0
1644798359.007,-113.770,-136.719,-44.922,-103.516,0.000,0
1644798359.011,-101.074,272.949,-48.828,-74.707,0.000,0
1644798359.015,-89.355,-278.809,-57.129,-45.898,0.000,0
1644798359.018,-113.770,-885.254,-68.359,-49.805,0.000,0
1644798359.022,-125.488,-1000.000,-62.500,-73.242,0.000,0
1644798359.026,-104.980,-264.648,-37.109,-93.262,0.000,0
1644798359.030,-106.445,655.273,-38.086,-74.707,0.000,0
1644798359.034,-112.793,143.555,-57.617,-39.551,0.000,0
1644798359.038,-102.051,-832.520,-67.871,-42.969,0.000,0
1644798359.042,-112.793,-961.426,-53.223,-82.031,0.000,0
1644798359.046,-126.465,-62.500,-36.133,-106.445,0.000,0
1644798359.050,-112.305,494.629,-37.598,-72.754,0.000,0
1644798359.054,-99.121,104.492,-48.340,-43.457,0.000,0
1644798359.058,-103.027,-604.004,-66.895,-46.875,0.000,0
1644798359.061,-119.141,-1000.000,-64.941,-70.312,0.000,0
1644798359.065,-114.746,-756.348,-46.875,-88.867,0.000,0
1644798359.069,-91.797,-264.648,-40.039,-77.148,0.000,0
1644798359.073,-105.957,185.059,-41.504,-62.012,0.000,0
1644798359.077,-108.887,-371.094,-61.035,-46.387,0.000,0
1644798359.081,-107.910,-1000.000,-62.500,-58.594,0.000,0
1644798359.085,-125.000,-456.543,-39.551,-95.215,0.000,0
1644798359.089,-113.770,573.242,-37.598,-91.309,0.000,0
1644798359.093,-104.004,500.977,-51.758,-59.082,0.000,0
1644798359.097,-108.887,-475.098,-67.383,-33.203,0.000,0
1644798359.100,-107.910,-1000.000,-64.453,-59.570,0.000,0
1644798359.104,-97.168,-695.312,-41.992,-95.703,0.000,0
1644798359.108,-87.891,137.695,-36.133,-80.078,0.000,0
1644798359.112,-83.984,-201.172,-56.641,-40.527,0.000,0
1644798359.116,-91.309,-893.555,-61.035,-25.879,0.000,0
1644798359.120,-106.934,-962.402,-60.059,-48.340,0.000,0
1644798359.124,-102.051,-814.453,-49.316,-66.895,0.000,0
1644798359.127,-88.867,70.801,-29.297,-68.848,0.000,0
1644798359.132,-104.004,555.176,-44.922,-66.406,0.000,0
1644798359.136,-122.559,-25.879,-66.895,-49.805,0.000,0
1644798359.139,-125.000,-868.164,-68.848,-52.246,0.000,0
1644798359.143,-122.559,-732.910,-50.293,-75.684,0.000,0
1644798359.147,-116.699,308.594,-37.109,-83.496,0.000,0
1644798359.151,-103.516,475.586,-46.387,-70.312,0.000,0
1644798359.155,-89.844,-398.438,-59.570,-39.062,0.000,0
1644798359.159,-97.656,-1000.000,-66.406,-43.457,0.000,0
1644798359.163,-122.070,-775.391,-37.109,-77.148,0.000,0
1644798359.166,-105.957,168.945,-16.602,-80.078,0.000,0
1644798359.170,-75.684,476.074,-41.504,-71.777,0.000,0
1644798359.174,-96.680,-56.152,-59.570,-55.176,0.000,0
1644798359.178,-117.676,-755.859,-69.336,-51.758,0.000,0
1644798359.182,-111.328,-953.613,-59.570,-87.402,0.000,0
1644798359.186,-107.422,-224.609,-37.109,-100.098,0.000,0
1644798359.190,-104.492,539.551,-38.574,-73.730,0.000,0
1644798359.194,-97.656,244.141,-52.734,-42.969,0.000,0
1644798359.198,-106.445,-667.480,-68.359,-55.664,0.000,0
1644798359.202,-117.188,-1000.000,-69.336,-83.984,0.000,0
1644798359.205,-106.934,-520.508,-41.992,-83.008,0.000,0
1644798359.209,-98.145,446.289,-23.926,-74.219,0.000,0
1644798359.213,-97.656,230.469,-44.434,-57.617,0.000,0
1644798359.217,-100.586,-769.531,-72.754,-41.504,0.000,0
1644798359.221,-107.910,-1000.000,-64.941,-70.801,0.000,0
1644798359.225,-109.863,-136.230,-38.574,-100.098,0.000,0
1644798359.229,-101.562,502.930,-38.574,-77.148,0.000,0
1644798359.233,-98.633,171.387,-50.781,-52.734,0.000,0
1644798359.237,-103.027,-512.695,-62.988,-58.105,0.000,0
1644798359.240,-115.234,-972.168,-59.570,-75.195,0.000,0
1644798359.244,-121.094,-747.070,-48.340,-80.078,0.000,0
1644798359.248,-106.934,-163.086,-40.527,-54.688,0.000,0
1644798359.252,-102.051,280.273,-38.086,-56.641,0.000,0
1644798359.256,-100.586,-353.027,-55.176,-41.992,0.000,0
1644798359.260,-92.285,-1000.000,-61.523,-37.598,0.000,0
1644798359.264,-106.445,-530.762,-42.480,-85.938,0.000,0
1644798359.267,-113.281,502.930,-29.297,-88.379,0.000,0
1644798359.272,-99.609,519.043,-47.363,-56.641,0.000,0
1644798359.276,-100.098,-435.059,-67.871,-40.039,0.000,0
1644798359.280,-130.371,-1000.000,-62.500,-52.246,0.000,0
1644798359.283,-134.766,-578.125,-43.457,-94.238,0.000,0
1644798359.287,-107.910,419.434,-35.156,-92.773,0.000,0
1644798359.291,-103.516,224.121,-49.316,-54.688,0.000,0
1644798359.295,-115.723,-668.457,-61.035,-38.086,0.000,0
1644798359.299,-122.070,-1000.000,-59.082,-67.871,0.000,0
1644798359.303,-121.582,-853.027,-46.387,-106.934,0.000,0
1644798359.307,-114.746,-373.047,-37.109,-99.121,0.000,0
1644798359.310,-112.793,192.871,-38.086,-81.055,0.000,0
1644798359.314,-114.258,-54.199,-51.270,-69.824,0.000,0
1644798359.319,-118.164,-863.770,-68.359,-66.406,0.000,0
1644798359.323,-123.047,-805.664,-60.059,-96.191,0.000,0
1644798359.326,-109.375,173.340,-31.250,-101.562,0.000,0
1644798359.330,-103.516,699.707,-33.203,-68.359,0.000,1
1644798359.334,-120.605,-116.699,-65.430,-48.828,0.000,0
1644798359.338,-113.281,-1000.000,-71.289,-54.688,0.000,0
1644798359.342,-93.262,-909.668,-43.457,-74.707,0.000,0
1644798359.346,-95.703,66.895,-26.367,-72.266,0.000,0
1644798359.350,-96.191,251.953,-38.574,-43.457,0.000,0
1644798359.353,-92.773,-728.516,-54.199,-31.250,0.000,0
1644798359.357,-101.074,-999.512,-54.199,-48.340,0.000,0
1644798359.361,-117.676,-862.305,-45.410,-77.637,0.000,0
1644798359.366,-129.395,-276.367,-35.645,-100.098,0.000,0
1644798359.369,-124.512,404.785,-40.527,-76.172,0.000,0
1644798359.373,-122.070,285.645,-51.758,-61.035,0.000,0
1644798359.377,-128.418,-531.738,-68.848,-66.406,0.000,0
1644798359.381,-133.301,-995.605,-68.848,-82.031,0.000,0
1644798359.385,-119.141,-471.191,-56.641,-97.168,0.000,0
1644798359.389,-109.375,195.801,-58.594,-86.914,0.000,0
1644798359.393,-121.582,-49.316,-58.594,-58.594,0.000,0
1644798359.396,-123.535,-780.762,-60.059,-34.668,0.000,0
1644798359.400,-129.395,-1000.000,-45.898,-68.848,0.000,0
1644798359.404,-137.207,-314.941,-25.391,-109.375,0.000,0
1644798359.408,-119.629,461.426,-32.715,-87.402,0.000,0
1644798359.413,-115.723,108.398,-53.711,-58.105,0.000,0
1644798359.417,-112.793,-604.492,-62.988,-50.781,0.000,0
1644798359.420,-110.352,-1000.000,-55.176,-71.289,0.000,0
1644798359.424,-130.859,-618.164,-41.992,-90.820,0.000,0
1644798359.428,-116.699,246.582,-39.551,-76.172,0.000,0
1644798359.432,-108.887,312.500,-55.176,-61.035,0.000,0
1644798359.436,-121.094,-532.227,-68.848,-49.316,0.000,0
1644798359.440,-116.211,-1000.000,-65.430,-64.453,0.000,0
1644798359.444,-123.047,-749.512,-44.922,-83.496,0.000,0
1644798359.447,-130.859,299.316,-35.156,-87.891,0.000,0
1644798359.451,-120.117,634.277,-54.688,-79.102,0.000,0
1644798359.455,-112.793,-237.793,-69.336,-46.387,0.000,0
1644798359.459,-122.070,-1000.000,-67.383,-51.758,0.000,0
1644798359.463,-130.371,-640.137,-53.711,-100.098,0.000,0
1644798359.467,-107.910,382.812,-42.480,-100.586,0.000,0
1644798359.471,-92.285,423.340,-42.480,-65.430,0.000,0
1644798359.475,-104.004,-409.668,-48.340,-43.457,0.000,0
1644798359.479,-119.141,-955.078,-55.664,-48.340,0.000,0
1644798359.483,-119.629,-893.555,-50.781,-83.496,0.000,0
1644798359.486,-104.004,-247.070,-35.645,-86.426,0.000,0
1644798359.490,-99.121,360.840,-41.016,-70.312,0.000,0
1644798359.494,-99.609,76.172,-57.617,-50.781,0.000,0
1644798359.498,-111.816,-711.914,-68.848,-39.062,0.000,0
1644798359.502,-123.047,-1000.000,-55.664,-61.523,0.000,0
1644798359.506,-99.121,-166.992,-22.461,-89.355,0.000,0
1644798359.510,-94.238,676.270,-31.250,-83.984,0.000,0
1644798359.514,-105.469,111.328,-59.570,-57.617,0.000,0
1644798359.518,-113.281,-823.730,-66.406,-59.082,0.000,0
1644798359.522,-126.465,-904.785,-55.176,-93.750,0.000,0
1644798359.525,-116.211,-140.625,-42.969,-98.145,0.000,0
1644798359.529,-106.445,83.008,-60.547,-67.871,0.000,0
1644798359.533,-107.422,-548.340,-67.871,-45.410,0.000,0
1644798359.537,-120.605,-809.082,-61.523,-47.852,0.000,0
1644798359.541,-130.371,-902.832,-65.918,-79.102,0.000,0
1644798359.545,-126.465,-369.141,-49.805,-97.168,0.000,0
1644798359.549,-107.910,398.438,-39.551,-73.730,0.000,0
1644798359.553,-97.656,423.828,-44.922,-59.570,0.000,0
1644798359.557,-108.887,-372.559,-64.453,-57.129,0.000,0
1644798359.561,-105.957,-1000.000,-81.543,-80.566,0.000,0
1644798359.564,-107.422,-320.801,-50.293,-107.910,0.000,0
1644798359.568,-104.004,601.562,-33.203,-79.102,0.000,0
1644798359.572,-100.098,205.078,-62.012,-56.152,0.000,0
1644798359.576,-101.074,-704.102,-75.195,-40.527,0.000,0
1644798359.580,-116.211,-1000.000,-59.570,-63.965,0.000,0
1644798359.584,-132.812,-421.387,-41.504,-113.770,0.000,0
1644798359.588,-108.398,430.664,-43.457,-83.008,0.000,0
1644798359.591,-103.027,238.770,-51.270,-56.152,0.000,0
1644798359.595,-114.746,-372.559,-62.500,-65.918,0.000,0
1644798359.599,-118.164,-931.641,-65.430,-75.684,0.000,0
1644798359.603,-122.559,-726.562,-48.828,-106.445,0.000,0
1644798359.607,-120.605,123.047,-43.457,-95.703,0.000,0
1644798359.611,-111.328,507.812,-59.570,-72.754,0.000,0
1644798359.615,-104.980,-146.484,-71.289,-57.617,0.000,0
1644798359.619,-103.027,-966.797,-80.566,-44.434,0.000,0
1644798359.623,-107.422,-789.551,-56.641,-69.824,0.000,0
1644798359.626,-117.188,201.660,-25.879,-76.172,0.000,0
1644798359.630,-113.770,618.652,-46.875,-54.688,0.000,0
1644798359.634,-102.051,-250.977,-69.824,-50.293,0.000,0
1644798359.638,-102.539,-1000.000,-71.289,-58.594,0.000,0
1644798359.642,-111.816,-755.859,-55.176,-91.309,0.000,0
1644798359.646,-106.445,185.547,-43.945,-94.238,0.000,0
1644798359.650,-99.121,333.496,-56.641,-69.336,0.000,0
1644798359.654,-102.539,-191.895,-58.105,-49.805,0.000,0
1644798359.658,-97.168,-750.000,-56.152,-50.781,0.000,0
1644798359.662,-89.844,-875.977,-48.340,-69.824,0.000,0
1644798359.666,-91.797,-305.664,-39.062,-66.895,0.000,0
1644798359.670,-91.797,112.793,-48.340,-56.152,0.000,0
1644798359.673,-97.168,-234.863,-57.617,-47.852,0.000,0
1644798359.677,-105.469,-849.121,-62.988,-47.852,0.000,0
1644798359.681,-111.816,-984.863,-55.664,-76.660,0.000,0
1644798359.685,-113.770,-225.586,-29.297,-95.215,0.000,0
1644798359.689,-104.004,594.727,-34.180,-73.242,0.000,0
1644798359.693,-100.586,142.578,-62.500,-43.945,0.000,0
1644798359.697,-111.816,-811.523,-79.102,-41.992,0.000,0
1644798359.701,-124.512,-979.980,-68.359,-70.312,0.000,0
1644798359.705,-97.656,-199.707,-48.340,-77.637,0.000,0
1644798359.709,-78.613,268.555,-53.711,-64.453,0.000,0
1644798359.713,-104.980,-202.148,-64.941,-51.758,0.000,0
1644798359.716,-106.445,-796.875,-62.500,-46.387,0.000,0
1644798359.720,-109.375,-926.758,-48.828,-69.824,0.000,0
1644798359.724,-107.422,-701.172,-33.691,-82.520,0.000,0
1644798359.728,-90.820,-276.855,-38.086,-59.570,0.000,0
1644798359.732,-98.145,213.379,-44.922,-55.664,0.000,0
1644798359.736,-104.004,-367.676,-58.105,-42.969,0.000,0
1644798359.740,-94.238,-1000.000,-63.965,-60.059,0.000,0
1644798359.744,-99.121,-523.926,-42.480,-100.098,0.000,0
1644798359.748,-101.562,474.609,-29.297,-93.262,0.000,0
1644798359.752,-86.426,498.047,-42.969,-63.965,0.000,0
1644798359.756,-90.332,-430.664,-60.547,-51.270,0.000,0
1644798359.759,-95.215,-1000.000,-61.035,-56.641,0.000,0
1644798359.763,-108.887,-803.223,-42.969,-88.379,0.000,0
1644798359.767,-110.840,50.781,-41.992,-101.074,0.000,0
1644798359.771,-82.520,-214.355,-57.129,-58.105,0.000,0
1644798359.775,-86.914,-813.965,-62.988,-46.875,0.000,0
1644798359.779,-114.746,-896.484,-67.871,-79.590,0.000,0
1644798359.783,-112.305,-796.875,-51.758,-98.145,0.000,0
1644798359.787,-107.422,77.637,-39.062,-92.285,0.000,0
1644798359.791,-105.957,560.059,-47.852,-71.777,0.000,0
1644798359.795,-93.750,-16.113,-59.082,-47.852,0.000,0
1644798359.798,-107.910,-834.961,-75.195,-58.105,0.000,0
1644798359.802,-111.816,-787.598,-61.523,-81.055,0.000,0
1644798359.806,-102.051,30.762,-36.133,-82.520,0.000,0
1644798359.810,-99.121,288.086,-39.551,-71.289,0.000,0
1644798359.814,-87.402,-386.230,-58.105,-39.062,0.000,0
1644798359.818,-93.262,-1000.000,-63.477,-28.320,0.000,0
1644798359.822,-111.328,-828.613,-38.574,-76.660,0.000,0
1644798359.825,-109.375,-120.117,-36.621,-89.355,0.000,0
1644798359.829,-100.098,215.820,-50.293,-58.594,0.000,0
1644798359.834,-97.168,-36.621,-55.176,-35.156,0.000,0
1644798359.838,-100.098,-662.109,-49.316,-45.410,0.000,0
1644798359.841,-106.445,-956.543,-47.363,-83.008,0.000,0
1644798359.845,-96.680,-239.258,-43.945,-99.121,0.000,0
1644798359.849,-87.402,436.523,-37.598,-80.566,0.000,0
1644798359.853,-99.121,-97.168,-54.199,-53.223,0.000,0
1644798359.857,-112.305,-843.750,-67.871,-61.035,0.000,0
1644798359.861,-116.211,-1000.000,-65.430,-89.844,0.000,0
1644798359.865,-118.652,-413.574,-38.574,-110.352,0.000,0
1644798359.868,-114.258,610.352,-33.203,-97.656,0.000,0
1644798359.872,-112.793,340.820,-56.641,-72.266,0.000,0
1644798359.876,-121.094,-657.715,-72.266,-69.824,0.000,0
1644798359.880,-121.582,-1000.000,-65.918,-86.914,0.000,0
1644798359.884,-122.559,-471.191,-42.969,-98.145,0.000,0
1644798359.888,-125.488,159.668,-44.434,-88.379,0.000,0
1644798359.892,-121.582,152.344,-57.129,-73.730,0.000,0
1644798359.896,-123.535,-415.527,-62.500,-61.035,0.000,0
1644798359.900,-125.488,-979.492,-62.012,-74.219,0.000,0
1644798359.904,-115.723,-843.750,-56.152,-95.215,0.000,0
1644798359.907,-97.656,-294.922,-52.734,-70.312,0.000,0
1644798359.911,-100.586,265.625,-47.852,-58.594,0.000,0
1644798359.915,-101.074,-204.590,-61.035,-50.781,0.000,0
1644798359.919,-98.145,-986.816,-63.965,-57.129,0.000,0
1644798359.923,-117.676,-587.402,-43.945,-76.660,0.000,0
1644798359.927,-110.352,479.492,-31.738,-65.430,0.000,0
1644798359.931,-94.727,594.727,-45.898,-45.410,0.000,0
1644798359.935,-92.773,-335.938,-56.152,-27.832,0.000,0
1644798359.939,-103.027,-1000.000,-61.523,-55.176,0.000,0
1644798359.943,-113.281,-803.223,-47.363,-97.656,0.000,0
1644798359.946,-109.863,74.219,-32.227,-86.426,0.000,0
1644798359.950,-97.168,-169.434,-51.758,-50.781,0.000,0
1644798359.954,-95.215,-896.484,-55.176,-35.156,0.000,0
1644798359.958,-102.539,-924.805,-45.410,-59.570,0.000,0
1644798359.962,-106.934,-784.180,-40.527,-97.656,0.000,0
1644798359.966,-111.816,24.902,-31.250,-97.168,0.000,0
1644798359.970,-107.910,559.570,-39.062,-71.777,0.000,0
1644798359.974,-109.375,93.262,-60.059,-54.688,0.000,0
1644798359.978,-117.188,-761.719,-70.801,-58.105,0.000,0
1644798359.981,-122.070,-834.473,-47.852,-92.773,0.000,0
1644798359.985,-112.793,154.297,-28.809,-100.098,0.000,0
1644798359.989,-94.727,688.477,-45.410,-70.801,0.000,0
1644798359.993,-84.473,-167.969,-66.895,-40.039,0.000,0
1644798359.997,-78.613,-1000.000,-72.266,-35.156,0.000,0
1644798360.001,-91.309,-946.289,-46.875,-80.566,0.000,0
1644798360.005,-92.285,-51.270,-28.809,-100.098,0.000,0
1644798360.009,-75.684,369.629,-40.527,-69.824,0.000,0
1644798360.012,-80.078,-56.641,-54.688,-54.688,0.000,0
1644798360.016,-91.797,-614.746,-62.012,-48.828,0.000,0
1644798360.021,-106.934,-945.312,-58.594,-77.637,0.000,0
1644798360.025,-107.422,-361.816,-44.434,-104.492,0.000,0
1644798360.028,-91.797,375.000,-44.434,-76.660,0.000,0
1644798360.032,-89.844,340.332,-54.688,-59.082,0.000,0
1644798360.036,-90.332,-477.539,-64.941,-45.410,0.000,0
1644798360.040,-108.398,-1000.000,-65.918,-62.500,0.000,0
1644798360.044,-109.863,-567.383,-46.875,-90.820,0.000,0
1644798360.048,-94.238,283.203,-37.109,-78.613,0.000,0
1644798360.052,-100.586,233.887,-48.340,-61.035,0.000,0
1644798360.055,-106.445,-623.047,-60.547,-47.852,0.000,0
1644798360.059,-107.422,-1000.000,-58.594,-57.129,0.000,0
1644798360.063,-106.445,-507.324,-41.016,-84.473,0.000,0
1644798360.068,-103.027,337.402,-36.621,-79.102,0.000,0
1644798360.071,-105.957,250.000,-53.223,-63.477,0.000,0
1644798360.075,-107.422,-352.051,-61.035,-47.852,0.000,0
1644798360.079,-112.793,-926.270,-65.918,-68.359,0.000,0
1644798360.083,-108.887,-625.000,-56.641,-103.027,0.000,0
1644798360.087,-93.262,33.203,-45.898,-80.566,0.000,0
1644798360.091,-87.402,220.703,-45.898,-50.781,0.000,0
1644798360.095,-90.820,-250.488,-51.758,-49.316,0.000,0
1644798360.098,-100.098,-952.637,-64.941,-50.293,0.000,0
1644798360.102,-96.191,-787.109,-51.758,-74.707,0.000,0
1644798360.106,-99.121,255.371,-29.785,-88.379,0.000,0
1644798360.110,-99.609,582.031,-39.551,-70.801,0.000,0
1644798360.114,-99.121,-320.801,-56.641,-63.965,0.000,0
1644798360.118,-100.098,-1000.000,-57.617,-63.477,0.000,0
1644798360.122,-108.887,-699.219,-38.574,-93.262,0.000,0
1644798360.126,-108.887,271.973,-33.691,-102.051,0.000,0
1644798360.130,-101.562,490.234,-49.316,-66.406,0.000,0
1644798360.134,-98.145,-317.383,-61.035,-42.480,0.000,0
1644798360.138,-106.934,-1000.000,-64.941,-57.129,0.000,0
1644798360.141,-113.770,-839.844,-47.363,-79.102,0.000,0
1644798360.145,-103.027,-532.227,-40.527,-79.102,0.000,0
1644798360.149,-93.750,-33.691,-46.875,-71.777,0.000,0
1644798360.153,-95.215,47.363,-46.875,-61.035,0.000,0
1644798360.157,-103.027,-755.371,-58.105,-51.758,0.000,0
1644798360.161,-110.352,-898.438,-47.363,-83.008,0.000,0
1644798360.165,-110.840,24.902,-23.438,-90.332,0.000,0
1644798360.169,-97.656,718.750,-33.203,-66.406,0.000,0
1644798360.173,-88.379,85.449,-57.617,-55.664,0.000,0
1644798360.177,-112.305,-860.352,-69.824,-46.387,0.000,0
1644798360.181,-128.906,-1000.000,-54.688,-76.172,0.000,0
1644798360.184,-120.117,-296.875,-33.691,-99.609,0.000,0
1644798360.188,-101.562,229.492,-47.363,-69.336,0.000,0
1644798360.192,-102.539,-449.707,-60.059,-37.109,0.000,0
1644798360.196,-111.816,-771.973,-60.059,-44.922,0.000,0
1644798360.200,-111.328,-909.668,-60.547,-87.402,0.000,0
1644798360.204,-112.305,-427.734,-50.781,-111.328,0.000,0
1644798360.208,-100.098,440.918,-45.410,-85.938,0.000,0
1644798360.212,-101.074,477.539,-51.758,-75.195,0.000,0
1644798360.216,-118.164,-374.512,-64.453,-65.918,0.000,1
1644798360.220,-132.324,-998.047,-59.570,-80.078,0.000,0
1644798360.223,-120.605,-384.766,-37.109,-101.562,0.000,0
1644798360.227,-95.703,400.879,-32.227,-73.730,0.000,0
1644798360.231,-96.191,136.719,-41.504,-45.410,0.000,0
1644798360.235,-99.121,-663.086,-69.336,-28.320,0.000,0
1644798360.239,-119.141,-1000.000,-71.289,-59.570,0.000,0
1644798360.243,-125.977,-472.656,-38.574,-102.539,0.000,0
1644798360.247,-106.934,414.062,-39.551,-88.379,0.000,0
1644798360.250,-106.445,298.828,-53.711,-60.547,0.000,0
1644798360.255,-116.211,-284.668,-60.547,-49.805,0.000,0
1644798360.259,-124.023,-868.164,-59.570,-82.031,0.000,0
1644798360.262,-120.117,-766.113,-48.340,-111.816,0.000,0
1644798360.266,-112.305,133.301,-42.480,-96.191,0.000,0
1644798360.270,-112.305,538.574,-51.270,-73.242,0.000,0
1644798360.274,-97.656,-309.570,-62.988,-45.898,0.000,0
1644798360.278,-101.074,-1000.000,-65.430,-48.340,0.000,0
1644798360.282,-124.512,-822.754,-45.898,-76.172,0.000,0
1644798360.286,-116.699,155.273,-15.625,-86.914,0.000,0
1644798360.290,-96.680,598.145,-29.297,-65.918,0.000,0
1644798360.293,-91.309,-261.719,-56.641,-43.457,0.000,0
1644798360.297,-92.285,-1000.000,-62.012,-61.523,0.000,0
1644798360.301,-103.516,-764.160,-47.363,-93.750,0.000,0
1644798360.305,-99.121,172.363,-29.297,-87.402,0.000,0
1644798360.309,-103.516,436.523,-37.109,-68.359,0.000,0
1644798360.313,-99.121,-55.176,-51.758,-56.152,0.000,0
1644798360.317,-95.703,-696.289,-55.176,-46.875,0.000,0
1644798360.321,-102.051,-915.527,-48.340,-78.125,0.000,0
1644798360.325,-96.680,-759.766,-37.109,-81.543,0.000,0
1644798360.329,-89.844,-316.895,-36.133,-47.363,0.000,0
1644798360.332,-77.148,21.484,-41.992,-35.156,0.000,0
1644798360.336,-85.938,-658.203,-49.316,-36.621,0.000,0
1644798360.340,-116.211,-967.285,-46.387,-62.012,0.000,0
1644798360.344,-120.117,-143.555,-29.785,-83.984,0.000,0
1644798360.348,-103.516,602.539,-23.438,-71.289,0.000,0
1644798360.352,-101.562,60.059,-45.898,-43.945,0.000,0
1644798360.356,-119.141,-852.051,-67.871,-48.828,0.000,0
1644798360.360,-128.418,-1000.000,-65.430,-85.449,0.000,0
1644798360.364,-110.352,-208.496,-40.527,-91.309,0.000,0
1644798360.367,-72.266,128.418,-43.945,-55.664,0.000,0
1644798360.371,-75.195,-433.105,-56.152,-28.320,0.000,0
1644798360.375,-99.609,-689.941,-55.176,-33.691,0.000,0
1644798360.379,-105.957,-962.891,-66.406,-59.082,0.000,0
1644798360.383,-106.934,-688.965,-45.898,-73.730,0.000,0
1644798360.387,-101.562,115.723,-32.715,-61.035,0.000,0
1644798360.391,-98.633,373.047,-52.246,-43.457,0.000,0
1644798360.395,-99.609,-362.793,-72.266,-39.062,0.000,0
1644798360.399,-109.863,-1000.000,-70.312,-61.035,0.000,0
1644798360.403,-119.141,-574.219,-46.875,-83.984,0.000,0
1644798360.407,-118.652,391.602,-48.828,-80.566,0.000,0
1644798360.411,-106.934,213.379,-56.641,-51.270,0.000,0
1644798360.414,-108.398,-684.082,-62.988,-45.898,0.000,0
1644798360.418,-123.535,-1000.000,-67.383,-80.566,0.000,0
1644798360.422,-122.070,-806.641,-39.551,-111.816,0.000,0
1644798360.426,-108.398,-3.906,-27.344,-83.984,0.000,0
1644798360.430,-93.750,-147.949,-51.758,-53.223,0.000,0
1644798360.434,-102.051,-720.703,-63.477,-50.293,0.000,0
1644798360.438,-121.094,-926.270,-61.035,-55.664,0.000,0
1644798360.442,-127.441,-909.668,-49.805,-92.773,0.000,0
1644798360.446,-117.676,-167.480,-41.992,-96.680,0.000,0
1644798360.450,-105.957,365.723,-49.805,-69.336,0.000,0
1644798360.454,-97.656,-167.969,-58.594,-49.805,0.000,0
1644798360.457,-98.145,-862.305,-64.453,-48.828,0.000,0
1644798360.461,-102.539,-995.605,-55.664,-67.871,0.000,0
1644798360.465,-99.121,-279.785,-43.457,-88.379,0.000,0
1644798360.469,-95.215,219.238,-50.781,-85.449,0.000,0
1644798360.473,-92.285,-491.211,-67.871,-51.758,0.000,0
1644798360.477,-95.703,-1000.000,-73.242,-42.969,0.000,0
1644798360.481,-111.328,-931.641,-47.363,-90.820,0.000,0
1644798360.484,-115.723,-305.664,-35.645,-99.121,0.000,0
1644798360.489,-101.074,191.406,-46.387,-70.312,0.000,0
1644798360.493,-93.262,-108.887,-53.223,-48.828,0.000,0
1644798360.497,-106.934,-730.469,-61.035,-45.410,0.000,0
1644798360.500,-122.070,-969.727,-61.035,-85.938,0.000,0
1644798360.504,-114.746,-441.895,-45.410,-100.586,0.000,0
1644798360.508,-98.145,90.332,-47.363,-76.660,0.000,0
1644798360.512,-88.379,-209.961,-54.688,-60.059,0.000,0
1644798360.516,-95.215,-842.773,-62.988,-52.734,0.000,0
1644798360.520,-108.887,-1000.000,-59.082,-56.152,0.000,0
1644798360.524,-117.188,-446.289,-27.832,-78.125,0.000,0
1644798360.527,-103.027,318.359,-29.297,-67.871,0.000,0
1644798360.531,-97.168,-27.344,-56.641,-46.387,0.000,0
1644798360.536,-102.051,-734.863,-66.895,-47.363,0.000,0
1644798360.540,-114.746,-1000.000,-60.059,-75.195,0.000,0
1644798360.543,-126.465,-347.168,-43.457,-108.398,0.000,0
1644798360.547,-109.863,377.930,-44.922,-95.215,0.000,0
1644798360.551,-108.887,183.105,-55.176,-74.219,0.000,0
1644798360.555,-111.328,-573.730,-67.871,-55.176,0.000,0
1644798360.559,-111.816,-975.586,-59.082,-73.242,0.000,0
1644798360.563,-117.676,-775.391,-48.828,-94.727,0.000,0
