timestamps,TP9,AF7,AF8,TP10,Right AUX
1641445404.733,0.000,0.000,0.000,0.000,0.000
1641445404.737,0.000,0.000,-0.977,0.000,0.000
1641445404.740,-1.465,-0.977,4.883,-1.465,0.000
1641445404.744,1.465,0.977,-16.602,1.953,0.000
1641445404.748,-11.719,-7.812,53.711,-8.789,0.000
1641445404.752,-37.109,-29.297,59.082,-32.227,0.000
1641445404.756,-43.945,-34.180,-58.105,-24.414,0.000
1641445404.760,-32.227,-34.668,-42.969,-8.789,0.000
1641445404.764,-31.738,-32.715,-32.715,-18.555,0.000
1641445404.767,-44.434,-22.461,-39.551,-26.367,0.000
1641445404.771,-41.992,-16.602,-42.480,-24.414,0.000
1641445404.775,-29.297,-15.137,-36.133,-20.020,0.000
1641445404.779,-27.832,-20.508,-35.156,-13.672,0.000,0
1641445404.783,-35.645,-20.996,-42.480,-13.672,0.000,0
1641445404.786,-42.969,-19.531,-41.504,-20.020,0.000,0
1641445404.790,-39.062,-26.855,-40.527,-9.277,0.000,0
1641445404.794,-24.902,-26.855,-40.527,9.766,0.000,0
1641445404.798,-33.691,-20.020,-41.504,-5.859,0.000,0
1641445404.802,-37.109,-16.113,-41.992,-20.508,0.000,0
1641445404.806,-29.297,-14.648,-38.086,-12.695,0.000,0
1641445404.809,-22.461,-16.602,-38.086,-7.324,0.000,0
1641445404.813,-35.156,-14.648,-34.668,-10.254,0.000,0
1641445404.817,-34.668,-13.184,-29.297,-23.926,0.000,0
1641445404.821,-29.297,-18.555,-33.203,-11.719,0.000,0
1641445404.826,-32.715,-16.113,-33.691,5.859,0.000,0
1641445404.830,-33.203,-10.742,-33.691,-12.695,0.000,0
1641445404.834,-33.203,-11.719,-30.762,-17.578,0.000,0
1641445404.837,-21.484,-13.672,-31.250,-18.555,0.000,0
1641445404.841,-24.414,-20.020,-36.133,-8.301,0.000,0
1641445404.845,-29.297,-23.438,-31.738,1.953,0.000,0
1641445404.849,-32.715,-21.973,-33.203,-18.066,0.000,0
1641445404.853,-34.180,-17.090,-32.715,-25.391,0.000,0
1641445404.857,-31.738,-11.230,-28.809,-18.555,0.000,0
1641445404.861,-27.832,-18.066,-36.133,-14.160,0.000,0
1641445404.865,-34.180,-20.020,-34.668,-22.461,0.000,0
1641445404.868,-44.922,-15.137,-26.367,-18.555,0.000,0
1641445404.877,-39.062,-18.555,-30.273,-12.695,0.000,0
1641445404.881,-29.785,-24.902,-38.086,-18.066,0.000,0
1641445404.885,-33.691,-23.438,-41.016,-26.855,0.000,0
1641445404.889,-46.387,-19.531,-41.016,-28.809,0.000,0
1641445404.893,-47.363,-20.996,-41.504,-24.902,0.000,0
1641445404.897,-27.344,-19.531,-44.434,-31.738,0.000,0
1641445404.901,-27.832,-21.484,-45.410,-28.320,0.000,0
1641445404.905,-34.180,-19.531,-41.016,-19.043,0.000,0
1641445404.909,-34.668,-8.301,-36.133,-20.020,0.000,0
1641445404.913,-29.297,-9.277,-32.227,-16.113,0.000,0
1641445404.917,-22.949,-15.137,-33.691,-10.254,0.000,0
1641445404.921,-31.250,-14.648,-36.133,-18.066,0.000,0
1641445404.933,-30.273,-18.555,-37.598,-27.344,0.000,0
1641445404.937,-13.672,-21.484,-33.691,-19.043,0.000,0
1641445404.942,-12.207,-19.043,-32.715,-8.789,0.000,0
1641445404.946,-39.062,-23.926,-40.039,-22.461,0.000,0
1641445404.950,-49.805,-30.762,-44.434,-33.203,0.000,0
1641445404.954,-38.574,-24.902,-47.363,-29.785,0.000,0
1641445404.958,-21.973,-17.578,-46.387,-14.648,0.000,0
1641445404.962,-23.926,-20.020,-43.457,-19.531,0.000,0
1641445404.967,-39.062,-18.066,-41.016,-31.250,0.000,0
1641445404.971,-30.762,-15.137,-39.551,-24.414,0.000,0
1641445404.975,-16.602,-16.602,-43.457,-15.625,0.000,0
1641445404.979,-20.508,-20.508,-46.387,-6.348,0.000,0
1641445404.994,-30.762,-20.020,-41.992,-16.602,0.000,0
1641445404.998,-34.668,-26.855,-43.457,-16.602,0.000,0
1641445405.003,-25.391,-28.809,-45.410,1.953,0.000,0
1641445405.007,-18.555,-21.484,-38.086,-12.207,0.000,0
1641445405.011,-27.344,-19.531,-32.227,-23.926,0.000,0
1641445405.016,-27.344,-17.090,-35.156,-18.066,0.000,0
1641445405.020,-23.926,-13.672,-35.645,-16.602,0.000,0
1641445405.025,-8.301,-14.648,-33.203,1.465,0.000,0
1641445405.029,-11.230,-14.160,-31.738,-6.348,0.000,0
1641445405.033,-35.645,-11.230,-31.738,-26.855,0.000,0
1641445405.038,-31.250,-14.648,-29.297,-19.531,0.000,0
1641445405.042,-15.625,-12.695,-27.832,-6.836,0.000,0
1641445405.058,-18.555,-13.184,-29.785,-10.254,0.000,0
1641445405.063,-30.273,-20.508,-26.367,-15.137,0.000,0
1641445405.068,-33.691,-18.555,-29.297,-20.508,0.000,0
1641445405.072,-25.879,-16.602,-35.645,-25.391,0.000,0
1641445405.077,-14.648,-18.066,-33.203,-9.766,0.000,0
1641445405.081,-24.902,-16.602,-35.156,-9.766,0.000,0
1641445405.086,-36.133,-22.461,-37.109,-21.484,0.000,0
1641445405.090,-31.250,-27.832,-34.668,-29.297,0.000,0
1641445405.095,-24.902,-27.344,-34.668,-15.137,0.000,0
1641445405.099,-22.461,-28.809,-38.086,-9.766,0.000,0
1641445405.104,-33.203,-20.020,-36.133,-17.578,0.000,0
1641445405.108,-33.691,-8.789,-31.250,-11.230,0.000,0
1641445405.126,-26.367,-13.672,-39.551,-11.230,0.000,0
1641445405.130,-32.227,-16.113,-37.109,-14.160,0.000,0
1641445405.135,-32.227,-15.137,-29.785,-21.484,0.000,0
1641445405.140,-32.715,-15.625,-36.133,-21.973,0.000,0
1641445405.144,-29.297,-20.020,-43.457,-20.508,0.000,0
1641445405.149,-24.902,-25.391,-43.457,-26.367,0.000,0
1641445405.154,-36.621,-23.438,-38.574,-26.367,0.000,0
1641445405.158,-44.434,-19.531,-28.809,-21.973,0.000,0
1641445405.163,-24.902,-17.090,-25.879,-12.207,0.000,0
1641445405.168,-12.695,-17.578,-32.227,-5.859,0.000,0
1641445405.172,-28.809,-16.113,-31.250,-21.973,0.000,0
1641445405.177,-33.691,-15.625,-23.438,-25.391,0.000,0
1641445405.195,-31.738,-18.066,-22.461,-15.137,0.000,0
1641445405.200,-29.785,-15.137,-30.762,-20.996,0.000,0
1641445405.205,-35.156,-11.230,-32.227,-24.414,0.000,0
1641445405.209,-37.598,-17.090,-30.762,-32.715,0.000,0
1641445405.214,-28.809,-31.250,-37.598,-13.672,0.000,0
1641445405.219,-26.367,-28.320,-37.109,12.207,0.000,0
1641445405.224,-33.691,-20.020,-30.273,-4.395,0.000,0
1641445405.229,-35.645,-19.531,-23.438,-10.254,0.000,0
1641445405.233,-24.902,-19.531,-16.602,-16.113,0.000,0
1641445405.238,-16.602,-19.043,-19.531,-17.578,0.000,0
1641445405.243,-23.926,-17.578,-23.438,-11.719,0.000,0
1641445405.248,-32.715,-14.160,-24.414,-19.531,0.000,0
1641445405.258,-26.855,-14.160,-29.297,-17.578,0.000,0
1641445405.263,-11.719,-13.184,-27.832,-12.695,0.000,0
1641445405.268,-9.766,-20.020,-30.762,-13.672,0.000,0
1641445405.273,-21.484,-28.809,-37.109,-19.531,0.000,0
1641445405.278,-29.785,-28.809,-34.668,-21.973,0.000,0
1641445405.282,-24.902,-25.879,-38.574,-15.137,0.000,0
1641445405.287,-24.902,-27.344,-39.062,-1.953,0.000,0
1641445405.292,-35.156,-26.855,-32.227,-13.184,0.000,0
1641445405.297,-37.109,-21.973,-32.715,-27.832,0.000,0
1641445405.302,-29.785,-16.602,-34.180,-20.508,0.000,0
1641445405.307,-13.184,-20.996,-35.645,-14.160,0.000,0
1641445405.312,-13.184,-35.645,-41.992,-5.371,0.000,0
1641445405.316,-35.156,-32.227,-42.969,-13.184,0.000,0
1641445405.320,-41.504,-17.090,-36.621,-31.250,0.000,0
1641445405.325,-23.926,-18.066,-38.574,-21.973,0.000,0
1641445405.330,-14.648,-20.996,-40.039,-20.508,0.000,0
1641445405.335,-26.367,-20.508,-39.062,-21.484,0.000,0
1641445405.340,-37.109,-24.414,-41.992,-19.531,0.000,0
1641445405.345,-24.902,-27.344,-42.480,-20.508,0.000,0
1641445405.350,-27.832,-26.367,-41.504,-12.695,0.000,0
1641445405.354,-42.480,-20.996,-33.691,-19.043,0.000,0
1641445405.359,-38.086,-19.531,-30.762,-22.461,0.000,0
1641445405.364,-28.809,-20.020,-37.598,-20.020,0.000,0
1641445405.369,-22.949,-21.973,-38.574,-16.113,0.000,0
1641445405.368,-37.598,-26.855,-37.109,-20.996,0.000,0
1641445405.373,-46.875,-22.949,-38.574,-37.598,0.000,0
1641445405.378,-38.086,-23.926,-43.945,-32.715,0.000,0
1641445405.382,-32.227,-26.367,-40.039,-20.996,0.000,0
1641445405.387,-30.273,-23.438,-37.598,-27.344,0.000,0
1641445405.392,-38.086,-22.461,-40.527,-33.203,0.000,0
1641445405.397,-48.340,-28.809,-43.457,-24.902,0.000,0
1641445405.402,-35.156,-31.250,-44.434,-12.207,0.000,0
1641445405.406,-20.996,-18.066,-34.180,-15.625,0.000,0
1641445405.411,-29.785,-16.602,-27.832,-25.879,0.000,0
1641445405.416,-38.086,-18.555,-31.738,-28.320,0.000,0
1641445405.421,-28.320,-19.043,-40.039,-22.461,0.000,0
1641445405.416,-22.461,-22.949,-41.016,-17.090,0.000,0
1641445405.420,-33.691,-21.484,-36.133,-15.625,0.000,0
1641445405.425,-29.297,-13.672,-34.668,-17.578,0.000,0
1641445405.430,-29.297,-17.578,-39.062,-21.973,0.000,0
1641445405.435,-32.227,-22.949,-42.969,-29.297,0.000,0
1641445405.439,-25.391,-23.438,-42.480,-37.109,0.000,0
1641445405.444,-31.250,-23.438,-45.898,-33.203,0.000,0
1641445405.449,-35.645,-26.855,-45.898,-27.832,0.000,0
1641445405.454,-27.832,-27.344,-39.062,-14.648,0.000,0
1641445405.458,-21.973,-23.438,-37.109,-11.719,0.000,0
1641445405.463,-31.250,-25.879,-38.574,-25.879,0.000,0
1641445405.468,-31.250,-28.809,-36.621,-23.438,0.000,0
1641445405.459,-16.602,-23.438,-33.691,-10.742,0.000,0
1641445405.464,-12.207,-25.879,-42.969,-12.695,0.000,0
1641445405.469,-22.949,-33.203,-48.828,-20.020,0.000,0
1641445405.473,-24.902,-20.508,-37.109,-25.879,0.000,0
1641445405.478,-17.578,-19.043,-38.574,-28.809,0.000,0
1641445405.483,1.953,-22.461,-39.551,-9.766,0.000,0
1641445405.487,-5.859,-16.113,-34.180,-5.371,0.000,0
1641445405.492,-32.715,-16.602,-37.109,-24.414,0.000,0
1641445405.497,-27.344,-14.648,-37.109,-26.367,0.000,0
1641445405.501,-15.625,-17.090,-37.109,-21.484,0.000,0
1641445405.506,-22.461,-17.090,-38.086,-15.625,0.000,0
1641445405.510,-28.809,-7.324,-33.691,-7.324,0.000,0
1641445405.499,-33.203,-11.719,-32.715,-14.160,0.000,0
1641445405.504,-27.832,-13.672,-29.297,-17.090,0.000,0
1641445405.509,-20.020,-8.789,-29.785,-21.484,0.000,0
1641445405.513,-31.250,-19.043,-37.598,-33.691,0.000,0
1641445405.518,-39.062,-26.367,-35.156,-30.273,0.000,0
1641445405.522,-24.902,-27.832,-28.809,-15.137,0.000,0
1641445405.527,-16.113,-26.855,-32.715,0.000,0.000,0
1641445405.531,-35.645,-20.996,-35.156,-12.207,0.000,0
1641445405.536,-31.250,-23.926,-36.621,-27.344,0.000,0
1641445405.541,-15.137,-27.344,-37.598,-8.301,0.000,0
1641445405.545,-14.160,-15.625,-27.344,4.883,0.000,0
1641445405.550,-24.902,-7.812,-20.020,-5.371,0.000,0
1641445405.537,-31.250,-17.578,-22.949,-11.719,0.000,0
1641445405.541,-25.879,-26.855,-33.203,-11.719,0.000,0
1641445405.545,-17.090,-17.090,-30.273,-9.277,0.000,0
1641445405.550,-23.926,-11.230,-23.926,-8.301,0.000,0
1641445405.554,-33.203,-19.531,-35.156,-13.672,0.000,0
1641445405.559,-29.785,-23.438,-41.504,-21.484,0.000,1
1641445405.563,-23.926,-15.625,-33.203,-13.184,0.000,0
1641445405.568,-18.066,-8.301,-31.738,-6.836,0.000,0
1641445405.572,-20.020,-19.531,-36.621,-20.508,0.000,0
1641445405.577,-28.320,-24.902,-40.039,-26.367,0.000,0
1641445405.581,-34.668,-11.719,-32.715,-11.719,0.000,0
1641445405.586,-35.156,-9.766,-37.598,-2.441,0.000,0
1641445405.572,-44.434,-24.414,-50.293,-16.602,0.000,0
1641445405.577,-41.504,-26.855,-44.434,-22.949,0.000,0
1641445405.581,-29.785,-14.648,-33.203,-24.414,0.000,0
1641445405.585,-21.973,-21.484,-41.016,-19.043,0.000,0
1641445405.590,-28.809,-35.156,-47.363,-19.531,0.000,0
1641445405.594,-35.645,-30.762,-42.480,-32.715,0.000,0
1641445405.599,-30.273,-20.996,-39.062,-33.691,0.000,0
1641445405.603,-18.066,-22.949,-40.527,-13.184,0.000,0
1641445405.607,-17.578,-21.973,-40.527,-5.371,0.000,0
1641445405.612,-31.250,-14.160,-37.109,-26.367,0.000,0
1641445405.616,-22.461,-8.301,-29.785,-31.250,0.000,0
1641445405.620,-13.184,-16.113,-30.762,-15.137,0.000,0
1641445405.610,-21.973,-24.414,-38.086,0.977,0.000,0
1641445405.615,-28.809,-15.137,-30.762,-14.648,0.000,0
1641445405.619,-28.809,-9.277,-22.949,-22.949,0.000,0
1641445405.623,-32.715,-14.648,-31.250,-21.484,0.000,0
1641445405.627,-30.762,-17.090,-33.203,-16.113,0.000,0
1641445405.632,-30.273,-17.578,-23.438,-13.184,0.000,0
1641445405.636,-31.250,-19.043,-22.949,-29.297,0.000,0
1641445405.640,-25.391,-21.973,-23.926,-13.672,0.000,0
1641445405.645,-21.484,-20.996,-28.320,-5.859,0.000,0
1641445405.649,-29.297,-17.578,-30.762,-17.578,0.000,0
1641445405.653,-31.738,-20.020,-32.227,-17.578,0.000,0
1641445405.658,-29.297,-20.996,-39.062,-20.020,0.000,0
1641445405.647,-24.902,-19.043,-40.527,-13.184,0.000,0
1641445405.651,-17.578,-16.113,-30.762,-8.301,0.000,0
1641445405.656,-12.207,-18.066,-25.879,-11.230,0.000,0
1641445405.660,-28.320,-25.879,-30.762,-18.555,0.000,0
1641445405.664,-39.551,-27.832,-37.109,-21.484,0.000,0
1641445405.668,-29.297,-27.344,-42.969,-13.672,0.000,0
1641445405.672,-33.691,-30.762,-37.598,-27.344,0.000,0
1641445405.677,-36.621,-27.344,-35.156,-30.762,0.000,0
1641445405.681,-26.855,-20.020,-35.645,-21.973,0.000,0
1641445405.685,-17.090,-14.160,-35.645,-15.137,0.000,0
1641445405.689,-29.785,-20.996,-41.016,-14.648,0.000,0
1641445405.694,-36.621,-29.785,-38.086,-18.066,0.000,0
1641445405.685,-27.832,-26.367,-33.203,-18.066,0.000,0
1641445405.689,-20.508,-25.879,-41.504,-18.066,0.000,0
1641445405.693,-20.996,-24.414,-41.504,-21.484,0.000,0
1641445405.697,-29.785,-19.531,-34.180,-22.949,0.000,0
1641445405.701,-38.086,-15.625,-39.062,-19.531,0.000,0
1641445405.705,-23.926,-17.090,-47.852,-13.672,0.000,0
1641445405.710,-13.672,-22.461,-48.340,-0.977,0.000,0
1641445405.714,-27.344,-17.090,-40.039,4.883,0.000,0
1641445405.718,-29.785,-3.906,-33.203,-20.508,0.000,0
1641445405.722,-15.137,-6.836,-43.945,-22.949,0.000,0
1641445405.726,-3.906,-10.742,-46.875,-7.324,0.000,0
1641445405.730,-16.113,-1.953,-35.645,-13.672,0.000,0
1641445405.722,-20.020,2.930,-26.367,-19.043,0.000,0
1641445405.726,-13.184,-7.812,-34.180,-23.926,0.000,0
1641445405.731,-13.184,-18.066,-44.922,-12.695,0.000,0
1641445405.735,-14.160,-17.578,-42.969,-20.996,0.000,0
1641445405.739,-24.902,-13.184,-42.480,-43.457,0.000,0
1641445405.743,-32.715,-13.184,-46.387,-32.715,0.000,0
1641445405.747,-20.996,-19.531,-50.293,-12.207,0.000,0
1641445405.751,-25.879,-14.648,-41.992,-20.020,0.000,0
1641445405.755,-37.598,-11.719,-36.621,-25.391,0.000,0
1641445405.759,-35.156,-21.973,-39.551,-23.926,0.000,0
1641445405.764,-20.020,-22.461,-42.480,-28.809,0.000,0
1641445405.768,-19.043,-12.695,-41.016,-19.043,0.000,0
1641445405.762,-31.250,-14.160,-41.016,-23.926,0.000,0
1641445405.766,-29.297,-19.531,-41.992,-29.785,0.000,0
1641445405.770,-23.926,-20.020,-44.922,-17.578,0.000,0
1641445405.774,-23.926,-19.043,-43.457,-7.324,0.000,0
1641445405.778,-29.785,-15.625,-36.133,-13.184,0.000,0
1641445405.782,-25.879,-20.996,-38.574,-12.207,0.000,0
1641445405.786,-17.090,-22.461,-37.109,-14.648,0.000,0
1641445405.791,-21.484,-17.578,-35.156,-23.438,0.000,0
1641445405.795,-26.855,-14.160,-33.691,-22.949,0.000,0
1641445405.799,-27.832,-13.184,-33.691,-23.926,0.000,0
1641445405.803,-34.180,-10.254,-33.203,-20.508,0.000,0
1641445405.807,-30.273,-10.742,-31.250,-11.719,0.000,0
1641445405.802,-28.320,-18.555,-31.250,-15.625,0.000,0
1641445405.806,-48.828,-22.949,-31.250,-28.809,0.000,0
1641445405.810,-51.270,-20.508,-30.762,-26.855,0.000,0
1641445405.814,-24.902,-17.578,-35.645,-14.160,0.000,0
1641445405.818,-20.996,-23.926,-41.504,-15.137,0.000,0
1641445405.822,-42.969,-27.832,-36.621,-29.297,0.000,0
1641445405.826,-38.574,-17.090,-29.785,-28.320,0.000,0
1641445405.830,-20.020,-13.672,-27.832,-20.508,0.000,0
1641445405.834,-19.531,-19.531,-31.250,-8.789,0.000,0
1641445405.838,-35.645,-24.414,-38.086,-17.578,0.000,0
1641445405.842,-52.246,-24.414,-37.109,-28.809,0.000,0
1641445405.847,-45.410,-20.996,-28.809,-25.879,0.000,0
1641445405.842,-30.273,-23.926,-31.738,-10.254,0.000,0
1641445405.846,-31.250,-29.297,-37.598,-13.184,0.000,0
1641445405.850,-41.992,-22.949,-34.180,-29.297,0.000,0
1641445405.854,-37.109,-22.461,-35.156,-26.367,0.000,0
1641445405.858,-25.879,-33.203,-41.504,-12.207,0.000,0
1641445405.862,-34.180,-33.691,-39.551,-8.789,0.000,0
1641445405.866,-38.574,-23.438,-30.762,-24.414,0.000,0
1641445405.870,-30.273,-19.531,-29.785,-22.949,0.000,0
1641445405.874,-17.090,-32.715,-48.828,-6.348,0.000,0
1641445405.878,-24.902,-36.133,-44.922,-7.324,0.000,0
1641445405.882,-46.875,-22.949,-33.203,-17.090,0.000,0
1641445405.887,-36.133,-19.043,-36.133,-8.301,0.000,0
1641445405.883,-18.066,-15.625,-31.250,2.441,0.000,0
1641445405.887,-12.207,-16.602,-32.715,3.906,0.000,0
1641445405.891,-27.344,-19.531,-37.109,-14.160,0.000,0
1641445405.895,-27.832,-16.602,-36.621,-26.367,0.000,0
1641445405.899,-19.043,-16.602,-38.574,-26.367,0.000,0
1641445405.903,-14.160,-13.672,-44.922,-19.043,0.000,0
1641445405.907,-23.926,-17.578,-45.898,-16.602,0.000,0
1641445405.911,-42.480,-27.344,-43.945,-25.391,0.000,0
1641445405.915,-35.645,-29.297,-38.086,-22.949,0.000,0
1641445405.919,-15.625,-19.531,-27.344,-8.789,0.000,0
1641445405.923,-26.855,-18.066,-28.320,-12.695,0.000,0
1641445405.927,-50.293,-28.809,-38.574,-24.902,0.000,0
1641445405.924,-47.363,-23.926,-42.480,-31.250,0.000,0
1641445405.928,-35.645,-14.160,-41.016,-32.227,0.000,0
1641445405.932,-25.391,-16.113,-42.480,-21.484,0.000,0
1641445405.936,-41.504,-22.949,-43.945,-23.926,0.000,0
1641445405.940,-49.805,-23.438,-39.551,-31.250,0.000,0
1641445405.944,-38.086,-20.020,-38.574,-30.762,0.000,0
1641445405.948,-30.273,-20.996,-38.574,-23.926,0.000,0
1641445405.952,-37.109,-23.438,-36.133,-22.949,0.000,0
1641445405.956,-43.457,-24.902,-38.086,-22.461,0.000,0
1641445405.960,-32.227,-18.555,-33.691,-21.484,0.000,0
1641445405.964,-24.414,-22.949,-36.621,-12.207,0.000,0
1641445405.967,-35.645,-25.879,-41.992,-11.230,0.000,0
1641445405.965,-40.039,-20.996,-38.574,-20.020,0.000,0
1641445405.969,-35.156,-23.438,-40.039,-26.367,0.000,0
1641445405.973,-31.250,-26.855,-42.480,-23.438,0.000,0
1641445405.977,-31.250,-20.020,-37.109,-26.855,0.000,0
1641445405.981,-38.086,-15.625,-34.180,-32.227,0.000,0
1641445405.985,-40.527,-19.531,-39.551,-30.762,0.000,0
1641445405.989,-32.227,-23.926,-41.016,-23.438,0.000,0
1641445405.993,-28.809,-27.832,-41.504,1.953,0.000,0
1641445405.997,-37.109,-16.602,-31.250,-2.441,0.000,0
1641445406.001,-43.457,-13.184,-25.879,-26.367,0.000,0
1641445406.004,-41.992,-19.043,-34.668,-29.297,0.000,0
1641445406.008,-32.715,-19.043,-38.574,-23.438,0.000,0
1641445406.006,-33.203,-16.113,-31.738,-20.996,0.000,0
1641445406.010,-36.621,-17.578,-29.297,-26.855,0.000,0
1641445406.014,-27.832,-20.996,-39.551,-21.973,0.000,0
1641445406.018,-18.066,-20.020,-45.898,-4.883,0.000,0
1641445406.022,-38.086,-26.855,-43.457,-15.137,0.000,0
1641445406.026,-53.223,-27.832,-41.992,-39.062,0.000,0
1641445406.030,-36.621,-26.367,-47.852,-37.109,0.000,0
1641445406.034,-27.344,-23.438,-46.387,-13.672,0.000,0
1641445406.038,-33.691,-13.672,-34.668,-16.602,0.000,0
1641445406.042,-38.574,-17.578,-31.250,-18.555,0.000,0
1641445406.046,-36.133,-23.438,-36.621,-14.160,0.000,0
1641445406.050,-23.438,-20.996,-37.598,-16.113,0.000,0
1641445406.048,-7.812,-16.113,-34.180,-16.113,0.000,0
1641445406.052,-17.090,-17.090,-34.180,-17.578,0.000,0
1641445406.056,-34.180,-26.855,-33.203,-11.719,0.000,0
1641445406.060,-30.762,-28.809,-30.273,-9.766,0.000,0
1641445406.064,-27.344,-20.996,-32.227,-11.719,0.000,0
1641445406.067,-30.762,-18.066,-36.133,-21.484,0.000,0
1641445406.071,-27.832,-17.578,-35.645,-12.207,0.000,0
1641445406.075,-29.297,-12.695,-32.715,-17.090,0.000,0
1641445406.079,-22.461,-11.230,-28.320,-16.113,0.000,0
1641445406.083,-22.461,-17.090,-30.273,-10.254,0.000,0
1641445406.087,-34.180,-20.996,-32.227,-27.832,0.000,0
1641445406.091,-30.273,-16.113,-30.273,-27.344,0.000,0
1641445406.091,-19.531,-17.090,-34.180,-20.020,0.000,0
1641445406.095,-22.461,-23.438,-41.504,-20.508,0.000,0
1641445406.099,-37.598,-19.043,-44.922,-25.879,0.000,0
1641445406.102,-46.387,-17.090,-42.969,-34.668,0.000,0
1641445406.106,-36.133,-20.996,-45.898,-40.039,0.000,0
1641445406.110,-27.832,-27.832,-52.734,-25.391,0.000,0
1641445406.114,-31.250,-24.902,-45.410,-31.738,0.000,0
1641445406.118,-37.598,-16.113,-37.598,-37.109,0.000,0
1641445406.122,-36.621,-21.973,-42.480,-21.484,0.000,0
1641445406.126,-29.785,-26.367,-47.852,-14.648,0.000,0
1641445406.130,-28.320,-21.484,-40.039,-20.996,0.000,0
1641445406.134,-32.715,-13.672,-30.762,-31.738,0.000,0
1641445406.134,-37.598,-14.160,-32.715,-33.203,0.000,0
1641445406.138,-22.461,-17.578,-33.203,-16.113,0.000,0
1641445406.142,-20.020,-14.648,-35.645,-14.160,0.000,0
1641445406.145,-38.574,-11.719,-38.086,-39.062,0.000,0
1641445406.149,-35.156,-16.602,-40.527,-40.039,0.000,0
1641445406.153,-25.879,-23.926,-42.969,-26.367,0.000,0
1641445406.157,-22.949,-19.043,-39.062,-15.137,0.000,0
1641445406.161,-29.297,-12.695,-30.762,-19.043,0.000,0
1641445406.165,-31.738,-23.438,-33.203,-21.973,0.000,0
1641445406.169,-20.996,-29.297,-42.480,-6.836,0.000,0
1641445406.173,-23.438,-20.508,-36.621,-2.441,0.000,0
1641445406.177,-34.180,-17.578,-32.227,-13.184,0.000,0
1641445406.177,-33.691,-18.066,-32.715,-11.719,0.000,0
1641445406.181,-20.508,-18.555,-33.691,-9.277,0.000,0
1641445406.185,-23.438,-21.973,-39.062,-4.395,0.000,0
1641445406.189,-40.039,-24.414,-33.203,-7.812,0.000,0
1641445406.192,-37.109,-23.926,-28.809,-19.043,0.000,0
1641445406.196,-33.203,-27.344,-32.227,-20.508,0.000,0
1641445406.200,-28.809,-26.855,-34.668,-19.531,0.000,0
1641445406.204,-30.762,-21.484,-38.086,-20.996,0.000,0
1641445406.208,-40.039,-23.438,-41.016,-17.578,0.000,0
1641445406.212,-37.109,-16.113,-42.969,-13.672,0.000,0
1641445406.216,-28.809,-9.766,-39.062,-8.789,0.000,0
1641445406.220,-32.227,-18.066,-42.480,-24.902,0.000,0
1641445406.220,-42.480,-20.508,-45.410,-37.598,0.000,0
1641445406.224,-41.504,-16.113,-40.039,-38.574,0.000,0
1641445406.228,-35.645,-14.648,-40.527,-41.992,0.000,0
1641445406.232,-24.902,-21.484,-42.969,-28.320,0.000,0
1641445406.236,-25.391,-24.902,-42.969,-21.973,0.000,0
1641445406.240,-40.527,-23.438,-48.340,-32.227,0.000,0
1641445406.243,-35.645,-22.949,-46.875,-22.949,0.000,0
1641445406.247,-27.344,-23.926,-43.945,-7.812,0.000,0
1641445406.251,-32.227,-25.391,-38.574,-11.719,0.000,0
1641445406.255,-37.598,-15.137,-31.250,-29.785,0.000,0
1641445406.259,-29.785,-12.207,-31.250,-32.227,0.000,0
1641445406.263,-21.973,-20.996,-36.133,-20.020,0.000,0
1641445406.263,-35.645,-19.531,-41.992,-25.391,0.000,0
1641445406.267,-45.410,-13.672,-35.156,-28.809,0.000,0
1641445406.271,-41.504,-20.508,-36.621,-23.438,0.000,0
1641445406.275,-27.344,-25.391,-37.598,-16.113,0.000,0
1641445406.279,-10.742,-19.531,-26.367,-4.395,0.000,0
1641445406.283,-25.879,-18.066,-31.738,-5.371,0.000,0
1641445406.287,-34.180,-16.602,-31.250,-16.113,0.000,0
1641445406.291,-19.531,-18.066,-31.738,-8.301,0.000,0
1641445406.294,-15.625,-21.973,-37.598,0.000,0.000,0
1641445406.298,-33.203,-16.113,-30.762,-25.879,0.000,0
1641445406.302,-55.664,-20.996,-32.227,-39.551,0.000,0
1641445406.306,-52.734,-25.391,-41.016,-33.203,0.000,0
1641445406.307,-39.551,-23.438,-42.969,-19.531,0.000,0
1641445406.311,-35.645,-25.879,-41.504,-20.508,0.000,2
1641445406.315,-40.039,-29.785,-39.062,-31.250,0.000,0
1641445406.318,-41.504,-22.461,-35.156,-14.160,0.000,0
1641445406.322,-19.043,-14.648,-34.180,7.324,0.000,0
1641445406.326,-10.254,-14.648,-36.621,-7.812,0.000,0
1641445406.330,-28.320,-18.555,-39.551,-23.438,0.000,0
1641445406.334,-26.855,-25.879,-38.574,-18.066,0.000,0
1641445406.338,-20.020,-20.508,-34.180,-8.789,0.000,0
1641445406.342,-22.949,-21.973,-37.598,-16.602,0.000,0
1641445406.345,-29.297,-25.879,-40.039,-34.668,0.000,0
1641445406.349,-41.016,-22.949,-38.086,-34.668,0.000,0
1641445406.350,-40.039,-20.020,-35.645,-33.203,0.000,0
1641445406.354,-27.344,-16.602,-36.621,-31.738,0.000,0
1641445406.358,-33.691,-20.508,-44.922,-38.086,0.000,0
1641445406.362,-43.457,-22.949,-43.945,-39.551,0.000,0
1641445406.366,-39.062,-23.438,-44.922,-32.227,0.000,0
1641445406.370,-19.043,-27.832,-49.316,-26.855,0.000,0
1641445406.374,-25.391,-28.809,-52.246,-33.203,0.000,0
1641445406.377,-38.086,-17.090,-45.898,-30.273,0.000,0
1641445406.381,-20.508,-1.465,-28.320,-29.297,0.000,0
1641445406.385,-17.090,-7.324,-29.785,-26.367,0.000,0
1641445406.389,-17.578,-8.301,-35.156,-16.602,0.000,0
1641445406.393,-21.484,-7.324,-36.621,-27.344,0.000,0
1641445406.394,-38.574,-7.812,-35.156,-33.691,0.000,0
1641445406.398,-34.180,-10.742,-36.133,-20.508,0.000,0
1641445406.402,-26.855,-17.090,-43.945,-9.766,0.000,0
1641445406.405,-35.156,-16.113,-37.109,-14.648,0.000,0
1641445406.409,-42.480,-16.113,-32.715,-18.555,0.000,0
1641445406.413,-31.738,-18.555,-38.086,-15.625,0.000,0
1641445406.417,-20.508,-30.273,-45.410,-7.812,0.000,0
1641445406.421,-31.250,-26.855,-40.039,-20.996,0.000,0
1641445406.425,-29.297,-10.742,-29.785,-25.391,0.000,0
1641445406.428,-27.832,-12.207,-33.203,-16.602,0.000,0
1641445406.432,-26.367,-9.766,-27.832,-12.695,0.000,0
1641445406.436,-15.625,0.488,-20.996,-11.719,0.000,0
1641445406.437,-31.738,-3.418,-26.855,-31.738,0.000,0
1641445406.441,-41.504,-17.090,-36.621,-36.621,0.000,0
1641445406.445,-29.297,-25.879,-39.062,-27.344,0.000,0
1641445406.449,-19.043,-19.531,-28.809,-14.160,0.000,0
1641445406.453,-24.414,-14.160,-27.344,-18.555,0.000,0
1641445406.457,-40.039,-22.949,-38.574,-27.832,0.000,0
1641445406.460,-39.062,-28.320,-39.551,-24.414,0.000,0
1641445406.464,-27.344,-20.996,-32.715,-19.043,0.000,0
1641445406.468,-33.691,-19.531,-28.809,-23.926,0.000,0
1641445406.472,-41.016,-29.785,-36.133,-31.738,0.000,0
1641445406.476,-21.973,-26.855,-37.598,-24.902,0.000,0
1641445406.480,-4.395,-17.090,-33.691,-13.184,0.000,0
1641445406.482,-19.531,-20.508,-39.062,-13.184,0.000,0
1641445406.486,-32.227,-18.555,-39.551,-30.273,0.000,0
1641445406.490,-23.438,-15.625,-37.109,-31.250,0.000,0
1641445406.494,-11.719,-11.230,-41.016,-14.160,0.000,0
1641445406.497,-8.789,-10.742,-37.598,-8.301,0.000,0
1641445406.501,-22.949,-17.090,-35.645,-16.113,0.000,0
1641445406.505,-32.715,-15.137,-36.621,-19.043,0.000,0
1641445406.509,-21.484,-14.160,-37.598,-16.602,0.000,0
1641445406.513,-17.578,-20.996,-39.551,-5.859,0.000,0
1641445406.517,-33.691,-25.391,-43.945,-8.301,0.000,0
1641445406.520,-36.621,-22.461,-38.574,-19.531,0.000,0
1641445406.524,-22.461,-25.391,-32.715,-18.066,0.000,0
1641445406.527,-14.160,-28.809,-40.039,-8.789,0.000,0
1641445406.530,-16.113,-28.320,-40.527,-5.859,0.000,0
1641445406.534,-26.367,-20.508,-33.203,-11.230,0.000,0
1641445406.538,-32.227,-15.625,-29.785,-17.578,0.000,0
1641445406.542,-17.090,-21.484,-33.691,-3.418,0.000,0
1641445406.546,-14.648,-25.879,-36.621,-5.371,0.000,0
1641445406.550,-30.762,-19.531,-29.297,-24.414,0.000,0
1641445406.553,-37.109,-19.531,-28.320,-25.879,0.000,0
1641445406.557,-26.855,-33.203,-41.504,-9.277,0.000,0
1641445406.561,-20.996,-28.320,-38.086,0.000,0.000,0
1641445406.565,-29.785,-11.719,-29.297,-16.113,0.000,0
1641445406.569,-33.691,-19.531,-36.621,-28.320,0.000,0
1641445406.571,-30.273,-22.949,-42.480,-29.785,0.000,0
1641445406.575,-26.855,-15.625,-36.621,-17.090,0.000,0
1641445406.579,-36.621,-13.672,-32.715,-12.695,0.000,0
1641445406.583,-37.598,-13.184,-37.109,-18.555,0.000,0
1641445406.587,-24.902,-15.137,-44.922,-15.625,0.000,0
1641445406.590,-20.020,-14.648,-44.434,-8.789,0.000,0
1641445406.594,-29.297,-12.695,-40.039,-19.043,0.000,0
1641445406.598,-42.480,-19.043,-40.039,-39.551,0.000,0
1641445406.602,-38.086,-27.832,-40.039,-37.109,0.000,0
1641445406.606,-24.414,-25.391,-36.133,-28.809,0.000,0
1641445406.610,-26.367,-17.578,-34.668,-33.691,0.000,0
1641445406.613,-36.621,-13.672,-37.109,-29.785,0.000,0
1641445406.616,-35.645,-12.207,-40.039,-30.762,0.000,0
1641445406.620,-32.227,-13.672,-45.410,-35.156,0.000,0
1641445406.624,-32.715,-23.438,-52.246,-32.227,0.000,0
1641445406.627,-40.527,-28.809,-48.828,-33.203,0.000,0
1641445406.631,-44.922,-25.879,-42.480,-31.250,0.000,0
1641445406.635,-30.762,-24.902,-43.457,-22.949,0.000,0
1641445406.639,-24.902,-26.367,-41.016,-11.719,0.000,0
1641445406.643,-35.645,-28.809,-45.410,-6.348,0.000,0
1641445406.647,-30.273,-25.879,-48.340,-11.230,0.000,0
1641445406.650,-30.762,-18.066,-45.410,-21.484,0.000,0
1641445406.654,-26.855,-20.996,-41.504,-3.906,0.000,0
1641445406.658,-26.367,-19.043,-40.527,-8.789,0.000,0
1641445406.661,-40.039,-14.160,-41.504,-19.043,0.000,0
1641445406.664,-36.621,-14.160,-35.156,-14.648,0.000,0
1641445406.668,-26.855,-20.996,-40.039,-17.090,0.000,0
1641445406.672,-28.320,-24.414,-45.410,-23.926,0.000,0
1641445406.676,-41.992,-22.461,-41.504,-23.926,0.000,0
1641445406.680,-49.316,-27.832,-46.387,-18.066,0.000,0
1641445406.684,-39.551,-38.574,-49.805,-10.254,0.000,0
1641445406.687,-32.227,-41.016,-47.852,-5.859,0.000,0
1641445406.691,-43.945,-27.832,-37.109,-31.738,0.000,0
1641445406.695,-50.781,-22.461,-30.762,-34.180,0.000,0
1641445406.699,-42.969,-28.809,-35.645,-23.438,0.000,0
1641445406.703,-29.297,-26.855,-36.621,-15.137,0.000,0
1641445406.705,-36.133,-22.461,-34.668,-14.648,0.000,0
1641445406.709,-40.039,-20.996,-32.227,-29.297,0.000,0
1641445406.713,-31.250,-28.809,-37.598,-28.809,0.000,0
1641445406.717,-31.250,-26.855,-43.457,-20.020,0.000,0
1641445406.721,-33.691,-18.066,-38.574,-23.438,0.000,0
1641445406.724,-41.504,-21.973,-37.598,-25.879,0.000,0
1641445406.728,-42.969,-24.902,-41.504,-17.090,0.000,0
1641445406.732,-31.738,-24.902,-46.387,-6.836,0.000,0
1641445406.736,-31.250,-17.578,-44.922,-6.836,0.000,0
1641445406.740,-34.180,-18.066,-40.527,-19.531,0.000,0
1641445406.744,-30.762,-19.043,-36.621,-28.809,0.000,0
1641445406.747,-28.809,-18.555,-42.480,-20.996,0.000,0
1641445406.750,-32.715,-19.531,-48.828,-13.672,0.000,0
1641445406.754,-37.109,-18.066,-49.316,-17.578,0.000,0
1641445406.758,-35.156,-17.578,-44.434,-23.926,0.000,0
1641445406.761,-27.344,-19.043,-39.551,-34.180,0.000,0
1641445406.765,-18.555,-20.508,-44.434,-29.785,0.000,0
1641445406.769,-29.297,-20.508,-51.270,-22.461,0.000,0
1641445406.773,-41.992,-27.832,-47.852,-16.113,0.000,0
1641445406.777,-41.504,-21.484,-38.574,-10.742,0.000,0
1641445406.781,-28.809,-16.602,-37.109,0.977,0.000,0
1641445406.784,-30.762,-22.949,-37.109,-7.812,0.000,0
1641445406.788,-43.457,-17.090,-35.645,-26.367,0.000,0
1641445406.792,-36.621,-9.277,-28.809,-20.020,0.000,0
1641445406.795,-30.273,-8.789,-32.715,-9.277,0.000,0
1641445406.798,-25.391,-10.254,-41.016,-17.090,0.000,0
1641445406.802,-22.949,-7.324,-36.133,-24.414,0.000,0
1641445406.806,-41.016,-14.160,-36.133,-20.508,0.000,0
1641445406.810,-37.598,-21.973,-43.945,-25.879,0.000,0
1641445406.814,-18.555,-22.949,-49.316,-15.137,0.000,0
1641445406.817,-26.855,-20.020,-42.969,-22.949,0.000,0
1641445406.821,-41.992,-9.766,-32.715,-41.016,0.000,0
1641445406.825,-39.062,-7.324,-32.715,-40.527,0.000,0
1641445406.829,-21.484,-16.602,-41.992,-25.879,0.000,0
1641445406.833,-32.715,-12.207,-35.156,-28.320,0.000,0
1641445406.837,-43.457,-3.418,-27.344,-39.062,0.000,0
1641445406.840,-25.391,-8.301,-31.738,-29.297,0.000,0
1641445406.844,-19.043,-6.836,-30.273,-12.695,0.000,0
1641445406.848,-31.738,-0.977,-26.855,-10.742,0.000,0
1641445406.852,-38.086,1.465,-26.367,-12.695,0.000,0
1641445406.855,-39.062,0.977,-31.250,-14.648,0.000,0
1641445406.859,-28.320,-7.324,-34.180,-16.602,0.000,0
1641445406.863,-15.137,-3.906,-31.250,-15.625,0.000,0
1641445406.867,-19.043,1.953,-23.438,-17.578,0.000,0
1641445406.871,-25.879,2.930,-22.461,-20.020,0.000,0
1641445406.874,-21.973,3.906,-25.391,-15.625,0.000,0
1641445406.878,-15.625,11.719,-17.578,-0.977,0.000,0
1641445406.882,-25.391,15.137,-12.207,9.766,0.000,0
1641445406.886,-23.438,10.254,-14.648,11.719,0.000,0
1641445406.889,-8.301,14.160,-17.578,2.441,0.000,0
1641445406.893,6.348,18.555,-18.066,2.441,0.000,0
1641445406.897,0.977,12.695,-22.949,-3.906,0.000,0
1641445406.901,-12.207,0.977,-30.273,-12.207,0.000,0
1641445406.905,-11.719,-6.836,-34.180,-8.301,0.000,0
1641445406.908,-2.930,1.953,-28.809,9.766,0.000,0
1641445406.912,-10.254,8.301,-22.949,3.418,0.000,0
1641445406.916,-14.648,-1.953,-31.738,-8.789,0.000,0
1641445406.920,-12.207,-1.465,-33.203,1.953,0.000,0
1641445406.924,-4.883,6.348,-26.855,4.395,0.000,0
1641445406.928,-2.930,-0.977,-32.227,3.418,0.000,0
1641445406.931,-20.020,-5.859,-31.738,-13.184,0.000,0
1641445406.935,-25.879,-3.418,-27.344,-17.578,0.000,0
1641445406.939,-27.832,-6.836,-33.691,-14.160,0.000,0
1641445406.942,-15.625,-14.648,-43.457,-8.301,0.000,0
1641445406.946,-11.719,-15.137,-43.945,-3.906,0.000,0
1641445406.950,-23.438,-15.625,-43.945,-7.324,0.000,0
1641445406.954,-19.531,-20.020,-43.945,-11.719,0.000,0
1641445406.958,-3.906,-26.367,-44.922,-1.465,0.000,0
1641445406.962,-18.066,-31.250,-41.504,-1.465,0.000,0
1641445406.965,-41.016,-22.949,-29.785,-10.254,0.000,0
1641445406.969,-39.551,-19.531,-31.250,-18.066,0.000,0
1641445406.973,-28.320,-30.273,-40.039,-14.160,0.000,0
1641445406.976,-26.855,-34.668,-36.133,-3.906,0.000,0
1641445406.980,-24.414,-28.809,-33.203,-10.254,0.000,0
1641445406.984,-13.672,-32.227,-37.598,-5.371,0.000,0
1641445406.988,-23.438,-32.227,-42.969,-3.906,0.000,0
1641445406.992,-40.527,-34.668,-43.945,-16.113,0.000,0
1641445406.996,-42.480,-38.086,-40.527,-25.391,0.000,0
1641445406.999,-39.062,-35.645,-35.156,-26.855,0.000,0
1641445407.003,-28.809,-37.598,-33.203,-13.184,0.000,0
1641445407.007,-17.090,-30.762,-33.691,3.906,0.000,0
1641445407.011,-30.273,-26.855,-31.738,-18.555,0.000,0
1641445407.015,-32.715,-29.785,-35.156,-35.156,0.000,0
1641445407.018,-24.902,-26.367,-32.715,-20.996,0.000,0
1641445407.022,-23.926,-26.367,-33.203,-11.230,0.000,0
1641445407.026,-34.180,-29.785,-40.527,-18.066,0.000,0
1641445407.029,-38.086,-34.180,-45.898,-39.551,0.000,0
1641445407.033,-31.250,-34.668,-44.922,-38.574,0.000,0
1641445407.037,-28.320,-34.180,-42.480,-28.809,0.000,0
1641445407.041,-26.855,-29.297,-41.992,-17.578,0.000,0
1641445407.045,-37.109,-29.297,-41.016,-19.531,0.000,0
1641445407.049,-39.062,-39.062,-43.457,-28.320,0.000,0
1641445407.052,-31.738,-31.250,-40.039,-12.695,0.000,0
1641445407.056,-28.320,-22.461,-33.203,-6.836,0.000,0
1641445407.060,-30.273,-23.438,-34.180,-24.414,0.000,0
1641445407.064,-34.668,-22.461,-40.527,-36.621,0.000,0
1641445407.067,-37.109,-24.414,-43.945,-31.250,0.000,0
1641445407.071,-34.668,-27.344,-45.898,-26.367,0.000,0
1641445407.075,-35.645,-32.715,-48.340,-28.320,0.000,1
1641445407.079,-44.922,-32.715,-41.992,-30.762,0.000,0
1641445407.082,-45.898,-24.902,-35.156,-38.574,0.000,0
1641445407.086,-34.180,-23.926,-38.086,-31.250,0.000,0
1641445407.090,-31.738,-32.715,-45.410,-28.809,0.000,0
1641445407.094,-46.875,-32.227,-44.922,-35.156,0.000,0
1641445407.098,-52.246,-18.555,-37.598,-28.320,0.000,0
1641445407.102,-31.250,-20.508,-35.156,-19.531,0.000,0
1641445407.105,-29.297,-23.926,-31.250,-15.137,0.000,0
1641445407.109,-34.668,-20.996,-30.762,-27.344,0.000,0
1641445407.113,-28.320,-21.484,-29.297,-36.621,0.000,0
1641445407.116,-17.578,-21.973,-31.250,-17.090,0.000,0
1641445407.120,-20.508,-19.531,-35.645,-12.695,0.000,0
1641445407.124,-33.203,-17.090,-32.715,-18.066,0.000,0
1641445407.128,-40.527,-19.531,-37.598,-17.578,0.000,0
1641445407.132,-34.180,-17.090,-42.480,-9.766,0.000,0
1641445407.135,-11.719,-15.625,-44.434,7.324,0.000,0
1641445407.139,-16.113,-11.719,-42.480,0.000,0.000,0
1641445407.143,-28.320,-8.789,-34.668,-8.789,0.000,0
1641445407.147,-19.531,-14.160,-34.668,0.488,0.000,0
1641445407.151,-10.742,-20.996,-34.180,-1.953,0.000,0
1641445407.154,-15.625,-28.320,-28.320,-17.090,0.000,0
1641445407.158,-33.203,-31.738,-30.273,-19.043,0.000,0
1641445407.162,-29.785,-23.926,-38.086,-18.066,0.000,0
1641445407.165,-18.555,-20.020,-41.992,-6.348,0.000,0
1641445407.169,-20.996,-22.949,-36.621,-5.371,0.000,0
1641445407.173,-24.902,-24.414,-32.715,-24.414,0.000,0
1641445407.177,-29.785,-28.320,-42.480,-13.672,0.000,0
1641445407.181,-23.926,-25.391,-39.551,0.000,0.000,0
1641445407.184,-19.531,-18.066,-31.250,0.977,0.000,0
1641445407.188,-26.855,-21.973,-32.227,-5.859,0.000,0
1641445407.192,-33.691,-24.414,-31.250,-16.602,0.000,0
1641445407.196,-29.785,-20.996,-35.645,-12.695,0.000,0
1641445407.200,-10.742,-19.043,-35.156,-2.441,0.000,0
1641445407.204,-18.066,-20.996,-34.668,-16.113,0.000,0
1641445407.208,-28.320,-25.391,-36.621,-12.695,0.000,0
1641445407.211,-20.996,-26.855,-35.156,-5.859,0.000,0
1641445407.215,-7.324,-22.461,-30.762,5.371,0.000,0
1641445407.219,-6.836,-21.484,-30.762,11.230,0.000,0
1641445407.223,-32.715,-21.484,-34.180,-12.695,0.000,0
1641445407.227,-41.992,-27.344,-34.180,-23.438,0.000,0
1641445407.231,-22.949,-24.902,-26.367,-18.555,0.000,0
1641445407.234,-14.160,-17.578,-20.020,-1.953,0.000,0
1641445407.238,-22.949,-14.160,-21.484,-6.348,0.000,0
1641445407.242,-31.738,-9.766,-24.902,-27.344,0.000,0
1641445407.246,-24.902,-17.090,-30.273,-18.066,0.000,0
1641445407.250,-18.066,-20.996,-32.227,-10.254,0.000,0
1641445407.254,-22.461,-19.531,-29.297,-28.320,0.000,0
1641445407.257,-29.785,-17.090,-27.832,-33.203,0.000,0
1641445407.261,-32.715,-19.531,-33.691,-29.297,0.000,0
1641445407.265,-21.484,-25.391,-37.109,-14.648,0.000,0
1641445407.269,-23.926,-24.414,-40.039,-20.020,0.000,0
1641445407.273,-34.180,-20.996,-37.598,-24.902,0.000,0
1641445407.276,-33.691,-18.066,-26.367,-11.719,0.000,0
1641445407.280,-21.484,-26.855,-32.227,-10.742,0.000,0
1641445407.284,-26.855,-32.227,-38.086,-12.695,0.000,0
1641445407.288,-35.156,-19.531,-30.273,-22.461,0.000,0
1641445407.292,-25.879,-19.531,-29.785,-28.809,0.000,0
1641445407.296,-4.395,-19.043,-31.250,-24.414,0.000,0
1641445407.300,9.766,-12.207,-28.320,-18.066,0.000,0
1641445407.303,-9.766,-13.672,-27.344,-13.184,0.000,0
1641445407.307,-22.949,-19.531,-35.645,-7.812,0.000,0
1641445407.311,-11.719,-23.926,-42.969,-7.812,0.000,0
1641445407.315,-6.348,-22.949,-46.387,-8.301,0.000,0
1641445407.319,-23.438,-21.484,-47.363,-15.625,0.000,0
1641445407.322,-40.527,-28.809,-45.898,-27.832,0.000,0
1641445407.326,-42.480,-32.227,-50.293,-15.625,0.000,0
1641445407.330,-28.320,-20.020,-41.504,-7.324,0.000,0
1641445407.334,-32.715,-17.090,-32.227,-11.719,0.000,0
1641445407.338,-54.199,-24.902,-38.086,-20.020,0.000,0
1641445407.342,-56.152,-26.367,-40.527,-23.926,0.000,0
1641445407.345,-33.691,-20.508,-37.109,-20.996,0.000,0
1641445407.349,-29.785,-18.066,-36.133,-19.531,0.000,0
1641445407.353,-49.316,-21.973,-39.062,-27.344,0.000,0
1641445407.357,-50.781,-21.973,-34.668,-29.785,0.000,0
1641445407.361,-40.039,-19.531,-36.133,-13.184,0.000,0
1641445407.364,-32.227,-18.555,-40.039,-18.066,0.000,0
1641445407.368,-44.922,-22.461,-44.922,-32.227,0.000,0
1641445407.372,-46.875,-17.578,-42.969,-27.832,0.000,0
1641445407.376,-25.391,-9.277,-33.691,-23.926,0.000,0
1641445407.380,-16.602,-11.719,-36.621,-21.973,0.000,0
1641445407.384,-40.527,-9.277,-38.574,-31.250,0.000,0
1641445407.387,-55.664,-11.230,-36.621,-46.387,0.000,0
1641445407.391,-46.875,-13.184,-38.086,-48.340,0.000,0
1641445407.395,-36.621,-15.625,-42.480,-27.832,0.000,0
1641445407.399,-34.180,-15.137,-41.016,-27.344,0.000,0
1641445407.403,-34.668,-9.277,-38.574,-35.645,0.000,0
1641445407.407,-37.109,-15.137,-40.039,-28.809,0.000,0
1641445407.410,-30.762,-18.066,-40.527,-22.949,0.000,0
1641445407.414,-21.484,-21.484,-46.387,-23.438,0.000,0
1641445407.418,-38.086,-12.695,-38.574,-37.598,0.000,0
1641445407.422,-53.711,-8.301,-29.297,-43.457,0.000,0
1641445407.426,-43.945,-19.043,-35.156,-33.203,0.000,0
1641445407.429,-26.367,-19.043,-33.691,-23.438,0.000,0
1641445407.433,-37.598,-10.254,-29.297,-32.715,0.000,0
1641445407.437,-53.223,-12.207,-32.715,-44.434,0.000,0
1641445407.441,-41.504,-21.973,-33.691,-26.367,0.000,0
1641445407.445,-30.273,-17.090,-28.809,-13.672,0.000,0
1641445407.449,-33.691,-15.137,-32.715,-27.344,0.000,0
1641445407.452,-32.715,-18.066,-35.156,-29.785,0.000,0
1641445407.456,-30.273,-19.043,-41.016,-37.109,0.000,0
1641445407.460,-20.996,-17.578,-40.527,-25.391,0.000,0
1641445407.464,-14.160,-8.789,-28.320,-20.020,0.000,0
1641445407.468,-31.738,-12.695,-27.344,-37.598,0.000,0
1641445407.471,-36.621,-15.625,-28.320,-31.738,0.000,0
1641445407.475,-23.926,-20.020,-33.203,-18.066,0.000,0
1641445407.480,-20.508,-17.578,-29.297,-15.625,0.000,0
1641445407.484,-23.438,-15.137,-24.902,-25.391,0.000,0
1641445407.487,-31.250,-20.996,-33.203,-27.832,0.000,0
1641445407.491,-35.156,-23.926,-32.715,-26.367,0.000,0
1641445407.495,-31.250,-25.879,-27.832,-30.762,0.000,0
1641445407.499,-34.668,-24.414,-32.715,-31.738,0.000,0
1641445407.503,-35.156,-26.367,-41.504,-33.691,0.000,0
1641445407.506,-33.691,-24.902,-38.086,-29.785,0.000,0
1641445407.510,-17.090,-14.648,-30.273,-17.090,0.000,0
1641445407.514,-22.461,-9.277,-31.738,-30.273,0.000,0
1641445407.518,-31.250,-13.184,-30.762,-40.039,0.000,0
1641445407.522,-25.391,-18.066,-32.715,-27.832,0.000,0
1641445407.525,-30.762,-20.996,-38.574,-24.902,0.000,0
1641445407.529,-38.086,-27.832,-44.922,-25.879,0.000,0
1641445407.533,-42.480,-27.344,-40.039,-27.344,0.000,0
1641445407.537,-37.598,-20.996,-32.715,-36.133,0.000,0
1641445407.541,-26.855,-20.020,-42.969,-34.668,0.000,0
1641445407.544,-15.625,-20.020,-41.992,-16.113,0.000,0
1641445407.548,-25.391,-19.043,-29.297,-23.438,0.000,0
1641445407.552,-36.133,-18.555,-29.785,-39.551,0.000,0
1641445407.556,-38.086,-21.484,-38.574,-32.715,0.000,0
1641445407.560,-23.438,-27.832,-45.898,-17.090,0.000,0
1641445407.564,-25.879,-23.926,-44.922,-24.414,0.000,0
1641445407.567,-43.457,-13.672,-35.645,-32.715,0.000,0
1641445407.572,-38.086,-20.020,-40.527,-26.367,0.000,0
1641445407.575,-25.391,-24.902,-43.457,-19.531,0.000,0
1641445407.579,-27.832,-20.508,-36.133,-20.508,0.000,0
1641445407.583,-39.551,-18.066,-33.203,-26.367,0.000,0
1641445407.587,-37.109,-23.438,-33.203,-29.297,0.000,0
1641445407.591,-28.809,-25.879,-39.551,-29.297,0.000,0
1641445407.595,-26.367,-18.066,-41.992,-20.996,0.000,0
1641445407.598,-34.180,-11.230,-40.039,-32.227,0.000,0
1641445407.602,-44.434,-17.578,-39.551,-48.340,0.000,0
1641445407.606,-30.273,-24.414,-40.039,-32.715,0.000,0
1641445407.610,-17.090,-18.066,-39.551,-17.578,0.000,0
1641445407.614,-37.109,-16.602,-38.086,-14.648,0.000,0
1641445407.618,-50.781,-23.438,-39.551,-15.625,0.000,0
1641445407.622,-37.598,-22.461,-44.434,-18.555,0.000,0
1641445407.626,-24.902,-12.207,-43.457,-21.484,0.000,0
1641445407.629,-37.109,-16.602,-38.086,-26.855,0.000,0
1641445407.633,-41.992,-17.090,-36.621,-32.227,0.000,0
1641445407.637,-35.156,-14.648,-35.645,-27.344,0.000,0
1641445407.641,-22.949,-13.184,-32.715,-10.254,0.000,0
1641445407.645,-26.855,-8.301,-29.785,-14.648,0.000,0
1641445407.648,-31.250,-16.113,-37.109,-21.973,0.000,0
1641445407.652,-30.273,-15.137,-41.992,-16.602,0.000,0
1641445407.656,-33.203,-10.742,-40.039,-19.531,0.000,0
1641445407.660,-27.344,-17.578,-39.551,-16.602,0.000,0
1641445407.664,-36.621,-15.625,-40.527,-24.414,0.000,0
1641445407.668,-41.992,-13.184,-45.898,-34.668,0.000,0
1641445407.672,-34.668,-14.648,-44.434,-29.297,0.000,0
1641445407.676,-31.250,-17.090,-42.480,-20.508,0.000,0
1641445407.679,-39.551,-23.438,-40.527,-32.715,0.000,0
1641445407.683,-54.688,-26.855,-38.086,-31.250,0.000,0
1641445407.687,-43.945,-22.949,-42.969,-19.043,0.000,0
1641445407.691,-20.508,-22.949,-50.781,-18.066,0.000,0
1641445407.695,-32.227,-26.367,-44.922,-22.461,0.000,0
1641445407.699,-44.434,-17.578,-32.227,-27.832,0.000,0
1641445407.702,-43.945,-9.277,-30.273,-24.902,0.000,0
1641445407.706,-30.762,-20.996,-39.551,-14.160,0.000,0
1641445407.710,-27.344,-21.484,-40.527,-13.672,0.000,0
1641445407.714,-40.039,-9.766,-36.133,-18.066,0.000,0
1641445407.718,-36.621,-12.695,-38.086,-24.902,0.000,0
1641445407.722,-24.414,-21.973,-44.434,-21.973,0.000,0
1641445407.726,-24.902,-20.508,-43.457,-17.578,0.000,0
1641445407.729,-33.203,-15.137,-38.086,-32.227,0.000,0
1641445407.733,-37.109,-17.090,-39.551,-31.738,0.000,0
1641445407.737,-29.785,-25.879,-43.457,-15.137,0.000,0
1641445407.741,-13.184,-20.020,-39.551,-2.441,0.000,0
1641445407.745,-27.832,-8.789,-32.715,-22.461,0.000,0
1641445407.749,-46.387,-13.672,-41.992,-39.062,0.000,0
1641445407.752,-45.898,-15.137,-48.340,-31.250,0.000,0
1641445407.756,-22.949,-14.648,-45.898,-15.625,0.000,0
1641445407.760,-29.785,-17.090,-40.039,-16.602,0.000,0
1641445407.764,-47.363,-21.484,-36.621,-24.414,0.000,0
1641445407.768,-33.691,-25.391,-42.969,-19.531,0.000,0
1641445407.772,-17.578,-19.531,-46.387,-20.996,0.000,0
1641445407.776,-17.578,-17.090,-40.527,-23.926,0.000,0
1641445407.779,-25.391,-16.113,-37.598,-26.367,0.000,0
1641445407.783,-22.461,-18.555,-41.992,-13.672,0.000,0
1641445407.787,-20.508,-18.066,-41.992,-15.625,0.000,0
1641445407.791,-24.414,-18.066,-41.504,-25.879,0.000,0
1641445407.795,-21.973,-22.949,-43.457,-17.578,0.000,0
1641445407.798,-21.484,-21.484,-46.875,-13.672,0.000,0
1641445407.802,-35.645,-20.508,-43.457,-31.738,0.000,0
1641445407.806,-20.508,-27.344,-38.086,-27.832,0.000,0
1641445407.810,-20.020,-33.203,-38.086,-23.438,0.000,0
1641445407.814,-36.621,-26.855,-40.039,-34.668,0.000,0
1641445407.818,-37.109,-23.438,-41.504,-30.762,0.000,0
1641445407.822,-28.809,-27.344,-45.410,-16.602,0.000,0
1641445407.825,-31.250,-34.668,-52.246,-17.578,0.000,0
1641445407.829,-42.969,-36.133,-53.711,-29.297,0.000,0
1641445407.833,-40.039,-30.762,-48.828,-24.902,0.000,0
1641445407.837,-20.020,-28.809,-49.805,-14.160,0.000,0
1641445407.841,-11.719,-25.391,-55.176,-16.602,0.000,0
1641445407.844,-38.086,-29.297,-49.316,-27.344,0.000,0
1641445407.848,-49.805,-27.832,-43.457,-30.273,0.000,0
1641445407.852,-33.203,-28.809,-46.387,-13.672,0.000,0
1641445407.856,-17.578,-32.227,-47.852,-10.742,0.000,0
1641445407.860,-25.391,-28.809,-41.504,-25.391,0.000,0
1641445407.864,-38.086,-24.902,-37.598,-27.344,0.000,0
1641445407.868,-33.691,-28.809,-41.992,-24.414,0.000,0
1641445407.871,-30.273,-37.109,-48.340,-7.812,0.000,0
1641445407.875,-30.273,-25.391,-44.434,-6.836,0.000,0
1641445407.879,-31.250,-11.719,-36.133,-9.766,0.000,0
1641445407.883,-28.320,-21.973,-41.016,-9.766,0.000,0
1641445407.887,-26.367,-29.785,-49.805,-19.043,0.000,0
1641445407.890,-29.297,-24.902,-44.434,-26.855,0.000,0
1641445407.894,-40.527,-22.461,-36.133,-33.691,0.000,0
1641445407.898,-31.250,-20.508,-39.062,-39.551,0.000,0
1641445407.902,-24.414,-17.578,-40.527,-27.344,0.000,0
1641445407.906,-31.738,-15.625,-36.621,-20.020,0.000,0
1641445407.910,-33.691,-19.043,-34.180,-30.273,0.000,0
1641445407.914,-38.574,-26.855,-38.086,-14.160,0.000,0
1641445407.917,-35.645,-24.414,-39.551,-4.883,0.000,0
1641445407.921,-30.273,-19.531,-37.598,-8.301,0.000,0
1641445407.925,-33.203,-23.926,-39.062,-19.531,0.000,0
1641445407.929,-28.809,-21.973,-39.062,-19.043,0.000,0
1641445407.933,-20.020,-15.137,-35.645,-3.418,0.000,0
1641445407.936,-7.324,-11.230,-32.715,6.836,0.000,0
1641445407.941,-10.254,-14.160,-34.668,4.395,0.000,0
1641445407.945,-28.320,-20.020,-35.645,-5.371,0.000,0
1641445407.949,-32.227,-20.996,-37.109,-15.137,0.000,0
1641445407.952,-8.789,-18.066,-35.645,-9.766,0.000,0
1641445407.956,-10.742,-20.508,-38.574,-4.395,0.000,0
1641445407.960,-30.273,-24.902,-47.363,-7.812,0.000,0
1641445407.964,-34.180,-26.367,-45.410,-18.555,0.000,1
1641445407.968,-37.598,-19.531,-39.551,-8.789,0.000,0
1641445407.971,-27.832,-19.043,-41.016,-3.906,0.000,0
1641445407.975,-29.785,-22.461,-40.527,-16.602,0.000,0
1641445407.979,-39.062,-15.625,-34.668,-15.137,0.000,0
1641445407.983,-30.273,-14.648,-33.691,-15.137,0.000,0
1641445407.987,-23.926,-17.090,-33.203,-7.812,0.000,0
1641445407.991,-34.668,-16.602,-36.133,-17.578,0.000,0
1641445407.995,-37.109,-18.066,-40.039,-22.949,0.000,0
1641445407.999,-32.227,-20.508,-39.062,-13.672,0.000,0
1641445408.003,-17.090,-29.785,-42.969,-9.766,0.000,0
1641445408.007,-15.137,-34.668,-44.434,-18.555,0.000,0
1641445408.010,-27.344,-17.090,-37.109,-24.414,0.000,0
1641445408.014,-26.855,-9.766,-33.203,-22.949,0.000,0
1641445408.018,-12.695,-28.320,-42.480,-13.672,0.000,0
1641445408.022,-18.066,-32.715,-42.969,-14.648,0.000,0
1641445408.026,-28.320,-23.438,-30.762,-35.645,0.000,0
1641445408.029,-32.715,-20.996,-28.809,-27.344,0.000,0
1641445408.034,-26.855,-19.043,-31.738,-12.207,0.000,0
1641445408.038,-10.742,-16.113,-32.227,-2.441,0.000,0
1641445408.041,-29.297,-19.531,-29.785,-15.625,0.000,0
1641445408.045,-41.504,-26.855,-28.809,-28.809,0.000,0
1641445408.049,-29.785,-29.297,-35.645,-14.648,0.000,0
1641445408.053,-20.508,-27.832,-38.574,-6.348,0.000,0
1641445408.057,-28.809,-22.461,-32.715,-16.602,0.000,0
1641445408.061,-29.297,-16.113,-32.227,-20.996,0.000,0
1641445408.064,-28.809,-17.090,-33.691,-17.090,0.000,0
1641445408.068,-30.762,-14.160,-27.344,-17.578,0.000,0
1641445408.072,-36.621,-16.602,-25.391,-32.227,0.000,0
1641445408.076,-38.086,-22.949,-30.273,-33.691,0.000,0
1641445408.080,-36.133,-23.438,-35.156,-28.809,0.000,0
1641445408.084,-37.598,-22.949,-34.180,-22.461,0.000,0
1641445408.088,-29.785,-23.438,-31.250,-16.602,0.000,0
1641445408.092,-39.551,-19.043,-31.250,-26.367,0.000,0
1641445408.095,-44.434,-17.090,-30.273,-38.574,0.000,0
1641445408.099,-24.902,-17.578,-32.227,-22.461,0.000,0
1641445408.103,-12.207,-14.648,-34.668,-5.371,0.000,0
1641445408.107,-20.020,-14.648,-32.715,-7.812,0.000,0
1641445408.111,-27.832,-8.789,-30.762,-6.348,0.000,0
1641445408.115,-19.531,-2.930,-32.227,-13.184,0.000,0
1641445408.118,-15.137,-8.301,-39.062,-14.648,0.000,0
1641445408.122,-28.809,-11.719,-36.133,-24.414,0.000,0
1641445408.127,-38.574,-14.160,-30.762,-21.973,0.000,0
1641445408.131,-32.715,-13.184,-34.668,-22.949,0.000,0
1641445408.135,-14.160,-16.602,-40.039,-15.137,0.000,0
1641445408.138,-23.438,-19.531,-37.109,-2.930,0.000,0
1641445408.142,-40.039,-18.066,-33.203,-15.137,0.000,0
1641445408.146,-36.133,-19.531,-34.668,-20.020,0.000,0
1641445408.150,-23.438,-20.508,-38.086,-3.906,0.000,0
1641445408.154,-18.555,-25.391,-47.852,-9.766,0.000,0
1641445408.158,-33.203,-19.043,-41.992,-19.043,0.000,0
1641445408.161,-26.855,-10.742,-30.762,-9.277,0.000,0
1641445408.165,-6.836,-9.766,-33.203,-0.488,0.000,0
1641445408.169,-20.020,-12.695,-34.180,-6.348,0.000,0
1641445408.173,-37.598,-10.742,-29.297,-16.113,0.000,0
1641445408.177,-27.832,-5.859,-29.297,-8.789,0.000,0
1641445408.181,-28.320,-11.230,-34.180,-15.625,0.000,0
1641445408.185,-29.785,-16.113,-29.785,-6.348,0.000,0
1641445408.189,-28.320,-11.230,-25.391,-4.883,0.000,0
1641445408.192,-37.598,-15.625,-28.320,-23.926,0.000,0
1641445408.196,-46.387,-27.344,-32.227,-24.414,0.000,0
1641445408.200,-30.762,-27.344,-37.598,-19.043,0.000,0
1641445408.204,-26.855,-22.461,-37.598,-21.973,0.000,0
1641445408.208,-32.715,-20.020,-33.691,-23.438,0.000,0
1641445408.211,-28.320,-28.320,-40.039,-4.883,0.000,0
1641445408.215,-20.508,-29.297,-48.828,-5.859,0.000,0
1641445408.219,-13.184,-18.066,-41.504,-24.902,0.000,0
1641445408.223,-28.809,-18.066,-33.203,-18.066,0.000,0
1641445408.227,-40.039,-20.020,-35.645,-20.996,0.000,0
1641445408.231,-30.762,-18.555,-36.621,-10.254,0.000,0
1641445408.235,-17.090,-10.254,-33.203,3.906,0.000,0
1641445408.239,-27.344,-16.113,-33.691,-3.906,0.000,0
1641445408.242,-41.016,-27.344,-33.691,-10.254,0.000,0
1641445408.246,-40.039,-20.020,-30.762,-20.508,0.000,0
1641445408.250,-26.855,-14.160,-33.203,-15.137,0.000,0
1641445408.254,-29.785,-16.602,-38.574,-16.113,0.000,0
1641445408.258,-41.992,-11.719,-37.109,-22.949,0.000,0
1641445408.261,-33.691,-5.859,-32.715,-14.648,0.000,0
1641445408.266,-5.371,-11.719,-35.645,-14.648,0.000,0
1641445408.269,-3.418,-23.926,-40.527,-18.066,0.000,0
1641445408.273,-18.555,-20.020,-37.109,-7.324,0.000,0
1641445408.277,-20.020,-15.625,-36.621,-5.859,0.000,0
1641445408.281,-14.648,-17.578,-41.504,-13.184,0.000,0
1641445408.285,-13.672,-25.879,-52.246,0.977,0.000,0
1641445408.288,-27.832,-30.762,-48.828,-7.324,0.000,0
1641445408.292,-39.062,-20.020,-38.086,-14.160,0.000,0
1641445408.296,-31.250,-18.555,-37.109,4.395,0.000,0
1641445408.300,-17.578,-23.438,-37.109,6.836,0.000,0
1641445408.304,-34.180,-19.531,-35.645,-14.160,0.000,0
1641445408.308,-40.039,-16.602,-37.598,-20.508,0.000,0
1641445408.312,-21.484,-19.531,-41.504,-15.625,0.000,0
1641445408.316,-20.020,-19.531,-44.434,-15.625,0.000,0
1641445408.320,-28.320,-18.555,-46.387,-26.367,0.000,0
1641445408.324,-39.062,-13.672,-41.016,-33.203,0.000,0
1641445408.327,-41.992,-17.090,-42.480,-33.691,0.000,0
1641445408.331,-24.414,-26.855,-45.898,-23.926,0.000,0
1641445408.335,-23.926,-28.320,-41.016,-18.066,0.000,0
1641445408.339,-39.062,-19.531,-37.109,-38.574,0.000,0
1641445408.343,-30.273,-12.695,-35.156,-32.227,0.000,0
1641445408.347,-20.020,-20.508,-40.039,-18.066,0.000,0
1641445408.350,-19.043,-16.602,-35.156,-19.531,0.000,0
1641445408.354,-27.344,-11.230,-27.832,-25.391,0.000,0
1641445408.359,-32.227,-15.625,-32.715,-22.461,0.000,0
1641445408.363,-24.902,-11.719,-32.227,-11.719,0.000,0
1641445408.366,-10.742,-11.230,-28.809,2.441,0.000,0
1641445408.370,-25.879,-12.207,-29.297,-6.348,0.000,0
1641445408.374,-41.016,-11.230,-33.203,-18.555,0.000,0
1641445408.378,-29.785,-19.043,-39.062,-9.766,0.000,0
1641445408.382,-19.043,-16.113,-39.062,-8.301,0.000,0
1641445408.386,-30.273,-13.184,-38.574,-20.020,0.000,0
1641445408.389,-42.480,-20.020,-39.551,-20.508,0.000,0
1641445408.393,-36.133,-18.555,-42.480,-15.137,0.000,0
1641445408.397,-20.508,-13.184,-35.645,-18.555,0.000,0
1641445408.401,-17.578,-20.996,-37.109,-11.230,0.000,0
1641445408.405,-38.574,-19.531,-43.945,-26.855,0.000,0
1641445408.409,-41.992,-12.207,-40.039,-37.109,0.000,0
1641445408.413,-22.461,-14.648,-38.086,-18.066,0.000,0
1641445408.417,-14.648,-22.949,-38.086,-19.043,0.000,0
1641445408.421,-24.902,-22.461,-33.203,-40.527,0.000,0
1641445408.424,-35.156,-16.113,-33.203,-39.551,0.000,0
1641445408.428,-30.273,-20.020,-35.156,-27.344,0.000,0
1641445408.432,-18.066,-23.438,-33.691,-11.230,0.000,0
1641445408.436,-18.555,-22.949,-33.691,-14.160,0.000,0
1641445408.440,-33.691,-13.184,-31.250,-24.902,0.000,0
1641445408.444,-34.180,-10.742,-29.785,-32.715,0.000,0
1641445408.447,-16.113,-19.043,-34.180,-24.414,0.000,0
1641445408.452,-18.555,-16.113,-37.598,-20.996,0.000,0
1641445408.456,-26.367,-9.277,-32.227,-26.367,0.000,0
1641445408.459,-30.273,-12.207,-28.809,-16.602,0.000,0
1641445408.463,-21.484,-21.973,-32.227,-0.977,0.000,0
1641445408.467,-10.742,-23.438,-38.086,1.465,0.000,0
1641445408.471,-22.949,-22.949,-37.598,-12.695,0.000,0
1641445408.475,-33.691,-24.414,-33.691,-25.391,0.000,0
1641445408.479,-27.832,-24.414,-39.062,-22.949,0.000,0
1641445408.482,-16.113,-20.508,-41.016,3.418,0.000,0
1641445408.486,-31.250,-9.766,-29.785,-18.066,0.000,0
1641445408.490,-42.969,-12.207,-27.832,-34.180,0.000,0
1641445408.494,-33.203,-22.949,-33.203,-25.391,0.000,0
1641445408.498,-19.531,-22.949,-36.621,-21.973,0.000,0
1641445408.502,-18.066,-15.625,-31.738,-17.090,0.000,0
1641445408.506,-40.527,-14.160,-30.273,-25.879,0.000,0
1641445408.510,-47.852,-20.996,-34.668,-29.785,0.000,0
1641445408.514,-28.809,-20.508,-33.203,-11.719,0.000,0
1641445408.517,-22.461,-19.043,-37.109,-9.277,0.000,0
1641445408.521,-30.273,-22.461,-41.016,-28.320,0.000,0
1641445408.525,-26.367,-22.949,-42.480,-23.438,0.000,0
1641445408.529,-22.949,-16.113,-39.062,-15.137,0.000,0
1641445408.533,-20.996,-11.230,-37.109,-23.926,0.000,0
1641445408.536,-22.949,-12.207,-37.109,-37.109,0.000,0
1641445408.540,-22.949,-9.766,-33.691,-33.203,0.000,0
1641445408.545,-12.695,-6.836,-25.391,-9.766,0.000,0
1641445408.548,-11.719,-14.160,-30.273,-6.836,0.000,0
1641445408.552,-30.762,-22.949,-40.039,-19.043,0.000,0
1641445408.556,-41.504,-19.531,-36.621,-27.344,0.000,0
1641445408.560,-26.855,-11.719,-33.691,-22.949,0.000,0
1641445408.564,-11.230,-16.113,-29.785,-6.348,0.000,0
1641445408.568,-20.020,-19.043,-34.668,-2.441,0.000,0
1641445408.571,-36.621,-19.531,-40.527,-13.184,0.000,0
1641445408.575,-39.062,-15.137,-33.691,-19.043,0.000,0
1641445408.579,-33.203,-17.578,-33.691,-3.906,0.000,0
1641445408.583,-30.273,-23.438,-33.203,-3.906,0.000,0
1641445408.587,-33.691,-21.973,-28.809,-16.113,0.000,0
1641445408.591,-38.086,-17.090,-26.367,-11.230,0.000,0
1641445408.595,-30.273,-17.090,-34.180,-10.254,0.000,0
1641445408.599,-19.531,-19.043,-41.016,-10.254,0.000,0
1641445408.602,-33.691,-13.672,-38.086,-16.113,0.000,0
1641445408.606,-41.504,-10.742,-33.691,-27.832,0.000,0
1641445408.610,-35.645,-17.578,-40.527,-30.273,0.000,0
1641445408.614,-24.902,-25.391,-51.758,-6.836,0.000,0
1641445408.618,-30.762,-18.066,-44.922,-3.418,0.000,0
1641445408.622,-35.645,-11.230,-39.062,-21.484,0.000,0
1641445408.625,-23.926,-20.020,-42.969,-25.879,0.000,0
1641445408.629,-19.531,-19.531,-36.621,-14.160,0.000,0
1641445408.633,-23.438,-14.648,-26.367,0.000,0.000,0
1641445408.637,-35.156,-15.625,-28.809,-7.812,0.000,0
1641445408.641,-37.598,-16.602,-33.203,-21.973,0.000,0
1641445408.645,-25.391,-16.602,-34.668,-20.996,0.000,0
1641445408.649,-15.625,-11.719,-27.832,-21.973,0.000,0
1641445408.652,-31.738,-14.648,-34.668,-32.227,0.000,0
1641445408.656,-36.621,-25.391,-47.363,-31.738,0.000,0
1641445408.660,-24.414,-24.902,-43.945,-23.438,0.000,0
1641445408.664,-20.020,-17.090,-40.039,-10.254,0.000,0
1641445408.668,-30.273,-16.602,-30.762,-7.324,0.000,0
1641445408.672,-40.039,-27.832,-38.086,-20.508,0.000,0
1641445408.675,-39.062,-26.855,-41.504,-18.555,0.000,0
1641445408.679,-31.738,-15.137,-36.133,-12.207,0.000,0
1641445408.684,-31.738,-17.090,-39.062,-10.254,0.000,0
1641445408.688,-39.062,-18.555,-37.109,-8.789,0.000,0
1641445408.692,-32.227,-15.137,-39.551,-19.531,0.000,0
1641445408.695,-14.160,-17.090,-40.527,-17.090,0.000,0
1641445408.699,-18.066,-21.484,-40.527,-6.836,0.000,0
1641445408.703,-34.180,-27.344,-43.945,-11.719,0.000,0
1641445408.707,-36.621,-30.273,-42.480,-22.461,0.000,0
1641445408.711,-21.973,-18.066,-30.762,-15.137,0.000,0
1641445408.715,-17.578,-12.207,-25.391,-5.371,0.000,0
1641445408.718,-28.320,-16.602,-29.297,-11.719,0.000,0
1641445408.722,-36.133,-7.812,-25.391,-16.602,0.000,0
1641445408.726,-29.785,-11.719,-30.273,-12.207,0.000,0
1641445408.731,-22.949,-27.832,-40.039,0.000,0.000,0
1641445408.734,-42.969,-30.273,-38.574,-19.043,0.000,0
1641445408.738,-47.852,-22.949,-31.738,-28.320,0.000,0
1641445408.742,-32.227,-22.461,-34.668,-17.578,0.000,0
1641445408.746,-20.508,-28.320,-41.504,0.488,0.000,0
1641445408.750,-25.879,-28.320,-40.039,-1.953,0.000,0
1641445408.754,-41.504,-22.461,-36.621,-14.160,0.000,0
1641445408.757,-40.039,-20.020,-32.227,-16.113,0.000,0
1641445408.761,-25.879,-36.133,-37.598,-7.812,0.000,0
1641445408.765,-22.461,-36.621,-36.621,-1.465,0.000,0
1641445408.769,-41.016,-17.090,-30.762,-32.715,0.000,1
1641445408.773,-47.363,-19.531,-40.527,-38.086,0.000,0
1641445408.777,-32.227,-17.090,-45.898,-21.973,0.000,0
1641445408.781,-28.809,-11.719,-41.504,-17.578,0.000,0
1641445408.785,-29.785,-11.719,-33.691,-16.602,0.000,0
1641445408.789,-29.297,-15.625,-35.156,-15.137,0.000,0
1641445408.792,-21.973,-20.996,-41.504,-10.254,0.000,0
1641445408.796,-10.742,-22.949,-44.922,-8.789,0.000,0
1641445408.800,-22.949,-26.367,-43.457,-8.301,0.000,0
1641445408.804,-37.598,-25.391,-38.574,-2.441,0.000,0
1641445408.808,-35.156,-29.297,-39.551,-9.277,0.000,0
1641445408.812,-22.461,-23.926,-33.203,-7.812,0.000,0
1641445408.815,-23.438,-15.625,-33.203,-16.602,0.000,0
1641445408.819,-28.320,-19.531,-42.969,-32.227,0.000,0
1641445408.824,-20.020,-15.625,-45.898,-28.809,0.000,0
1641445408.828,-20.020,-16.602,-52.734,-25.879,0.000,0
1641445408.831,-22.949,-24.902,-50.293,-29.297,0.000,0
1641445408.835,-30.273,-23.438,-40.527,-35.156,0.000,0
1641445408.839,-30.762,-17.090,-39.551,-32.715,0.000,0
1641445408.843,-17.090,-17.578,-39.551,-16.113,0.000,0
1641445408.847,-14.160,-22.949,-37.109,-12.207,0.000,0
1641445408.851,-23.438,-29.297,-43.945,-20.996,0.000,0
1641445408.854,-29.785,-25.391,-44.434,-23.438,0.000,0
1641445408.858,-22.461,-13.672,-37.598,-20.020,0.000,0
1641445408.862,-7.324,-15.625,-38.574,-12.207,0.000,0
1641445408.866,-16.113,-20.508,-39.551,-13.672,0.000,0
1641445408.870,-26.855,-13.672,-36.621,-18.555,0.000,0
1641445408.874,-25.879,-11.230,-35.645,-27.832,0.000,0
1641445408.878,-22.461,-19.531,-41.016,-19.531,0.000,0
1641445408.882,-22.461,-20.508,-41.992,-19.531,0.000,0
1641445408.886,-29.785,-15.625,-35.645,-24.414,0.000,0
1641445408.889,-32.227,-18.555,-40.039,-24.414,0.000,0
1641445408.893,-16.602,-19.043,-44.434,-25.879,0.000,0
1641445408.897,-14.648,-23.926,-43.945,-14.160,0.000,0
1641445408.901,-26.367,-19.043,-39.062,-17.578,0.000,0
1641445408.905,-28.809,-8.301,-28.320,-20.020,0.000,0
1641445408.909,-28.320,-17.090,-31.250,-7.324,0.000,0
1641445408.912,-21.973,-26.367,-35.156,-3.418,0.000,0
1641445408.917,-26.367,-25.391,-31.738,-15.137,0.000,0
1641445408.921,-39.062,-23.438,-28.320,-25.879,0.000,0
1641445408.924,-32.715,-27.344,-34.668,-19.531,0.000,0
1641445408.928,-17.090,-26.855,-36.621,-3.418,0.000,0
1641445408.932,-26.855,-24.414,-29.785,-7.324,0.000,0
1641445408.936,-37.598,-21.973,-35.156,-13.672,0.000,0
1641445408.940,-35.156,-27.344,-43.945,-18.066,0.000,0
1641445408.944,-20.508,-29.785,-41.992,-7.812,0.000,0
1641445408.947,-18.555,-20.996,-29.785,-5.859,0.000,0
1641445408.951,-29.785,-23.926,-26.367,-10.742,0.000,0
1641445408.955,-30.273,-20.996,-32.227,4.883,0.000,0
1641445408.959,-21.484,-21.973,-35.156,0.488,0.000,0
1641445408.963,-20.996,-21.484,-35.645,-18.066,0.000,0
1641445408.967,-27.832,-19.531,-39.551,-22.949,0.000,0
1641445408.971,-37.598,-22.949,-41.016,-26.855,0.000,0
1641445408.975,-38.086,-21.484,-41.992,-30.273,0.000,0
1641445408.979,-33.691,-20.020,-44.922,-24.414,0.000,0
1641445408.982,-36.621,-20.996,-42.480,-27.344,0.000,0
1641445408.986,-41.016,-21.973,-42.480,-24.902,0.000,0
1641445408.990,-41.504,-15.137,-42.480,-21.484,0.000,0
1641445408.994,-20.020,-4.883,-37.109,-14.160,0.000,0
1641445408.998,-16.602,-7.324,-35.156,-11.230,0.000,0
1641445409.002,-35.645,-6.348,-35.645,-17.090,0.000,0
1641445409.005,-27.344,-2.930,-34.668,-4.395,0.000,0
1641445409.010,-9.277,-5.859,-37.598,17.578,0.000,0
1641445409.013,-6.348,-10.742,-40.527,3.906,0.000,0
1641445409.017,-24.414,-10.254,-32.715,-20.508,0.000,0
1641445409.021,-35.156,-6.348,-27.344,-23.438,0.000,0
1641445409.025,-21.484,-6.836,-37.109,-17.090,0.000,0
1641445409.029,-19.531,-17.578,-49.316,-14.648,0.000,0
1641445409.033,-29.297,-16.113,-41.992,-23.926,0.000,0
1641445409.036,-25.391,-3.906,-34.180,-16.602,0.000,0
1641445409.040,-2.930,-0.977,-40.039,-9.766,0.000,0
1641445409.044,-1.465,-7.324,-47.363,0.488,0.000,0
1641445409.048,-35.645,-11.230,-44.434,-14.160,0.000,0
1641445409.052,-39.062,-9.766,-37.109,-30.273,0.000,0
1641445409.056,-15.625,-14.160,-40.527,-17.090,0.000,0
1641445409.060,-4.883,-15.137,-43.945,-2.930,0.000,0
1641445409.064,-18.066,-11.230,-44.434,-9.766,0.000,0
1641445409.068,-24.414,-9.766,-40.527,-22.461,0.000,0
1641445409.072,-21.484,-10.254,-38.086,-18.555,0.000,0
1641445409.076,-14.648,-15.625,-36.621,-3.906,0.000,0
1641445409.079,-8.789,-14.160,-37.598,-10.254,0.000,0
1641445409.083,-23.438,-7.324,-35.645,-26.855,0.000,0
1641445409.087,-19.043,-9.277,-30.762,-20.996,0.000,0
1641445409.091,1.953,-14.648,-34.668,-3.906,0.000,0
1641445409.095,-8.789,-11.719,-30.762,-4.395,0.000,0
1641445409.099,-30.762,-14.648,-25.391,-9.766,0.000,0
1641445409.104,-31.738,-20.020,-26.367,-11.230,0.000,0
1641445409.107,-21.484,-20.020,-33.691,-20.508,0.000,0
1641445409.111,-21.484,-19.043,-37.109,-25.391,0.000,0
1641445409.115,-28.320,-17.090,-35.645,-24.414,0.000,0
1641445409.119,-26.367,-18.555,-39.551,-19.043,0.000,0
1641445409.123,-20.996,-20.996,-41.016,-30.762,0.000,0
1641445409.127,-12.207,-20.508,-40.039,-20.996,0.000,0
1641445409.130,-22.461,-18.066,-39.062,-19.531,0.000,0
1641445409.134,-42.969,-24.902,-44.434,-34.668,0.000,0
1641445409.138,-38.574,-25.879,-45.410,-29.297,0.000,0
1641445409.142,-25.879,-11.719,-40.039,-33.691,0.000,0
1641445409.146,-22.461,-14.648,-42.969,-26.855,0.000,0
1641445409.150,-28.809,-18.066,-45.410,-25.879,0.000,0
1641445409.154,-31.738,-14.160,-41.992,-21.973,0.000,0
1641445409.158,-24.902,-19.043,-43.457,-11.230,0.000,0
1641445409.162,-25.391,-31.250,-50.293,-19.531,0.000,0
1641445409.166,-37.109,-29.297,-49.805,-28.809,0.000,0
1641445409.169,-37.598,-20.996,-45.410,-27.344,0.000,0
1641445409.173,-20.996,-21.484,-42.969,-23.438,0.000,0
1641445409.177,-17.578,-30.762,-44.434,-13.672,0.000,0
1641445409.181,-32.227,-30.762,-41.016,-20.996,0.000,0
1641445409.185,-40.527,-21.973,-33.691,-17.578,0.000,0
1641445409.189,-36.621,-16.602,-32.227,-12.207,0.000,0
1641445409.192,-21.484,-22.461,-39.551,-20.508,0.000,0
1641445409.197,-23.438,-30.273,-38.574,-11.719,0.000,0
1641445409.201,-38.574,-22.949,-30.273,-19.043,0.000,0
1641445409.205,-28.809,-17.090,-34.668,-32.715,0.000,0
1641445409.208,-12.207,-19.531,-42.969,-18.066,0.000,0
1641445409.212,-20.020,-19.531,-43.945,-10.742,0.000,0
1641445409.216,-33.691,-16.113,-42.480,-21.973,0.000,0
1641445409.220,-30.273,-12.207,-39.551,-27.344,0.000,0
1641445409.224,-5.371,-14.648,-37.109,-10.742,0.000,0
1641445409.228,-1.465,-18.555,-33.203,5.371,0.000,0
1641445409.231,-25.391,-11.719,-29.785,-21.973,0.000,0
1641445409.235,-27.344,-12.695,-35.156,-29.297,0.000,0
1641445409.239,-12.695,-13.672,-39.551,-20.508,0.000,0
1641445409.243,-4.883,-16.602,-39.062,-18.555,0.000,0
1641445409.247,-18.555,-16.602,-33.691,-15.137,0.000,0
1641445409.251,-32.715,-21.973,-41.992,-23.438,0.000,0
1641445409.255,-33.203,-21.973,-51.758,-32.227,0.000,0
1641445409.259,-19.043,-17.578,-49.805,-20.996,0.000,0
1641445409.263,-10.254,-15.625,-43.945,-14.160,0.000,0
1641445409.266,-28.320,-15.137,-41.504,-29.297,0.000,0
1641445409.270,-46.387,-21.973,-46.875,-19.043,0.000,0
1641445409.274,-40.039,-21.484,-44.922,-15.137,0.000,0
1641445409.278,-24.902,-17.578,-39.062,-24.902,0.000,0
1641445409.282,-39.551,-20.020,-40.527,-28.809,0.000,0
1641445409.286,-48.828,-21.973,-41.992,-30.273,0.000,0
1641445409.290,-33.691,-19.043,-36.621,-7.812,0.000,0
1641445409.294,-26.367,-24.414,-38.574,1.953,0.000,0
1641445409.298,-35.645,-26.855,-41.504,-13.672,0.000,0
1641445409.302,-41.016,-23.926,-38.086,-23.926,0.000,0
1641445409.305,-28.809,-17.090,-36.621,-19.043,0.000,0
1641445409.309,-14.160,-17.090,-36.621,-12.207,0.000,0
1641445409.313,-26.367,-28.320,-39.551,-17.090,0.000,0
1641445409.317,-38.574,-26.855,-34.668,-16.113,0.000,0
1641445409.321,-28.320,-15.625,-25.879,-7.812,0.000,0
1641445409.325,-21.973,-20.508,-29.785,-15.137,0.000,0
1641445409.328,-28.809,-22.461,-31.738,-40.527,0.000,0
1641445409.332,-36.133,-12.695,-26.855,-45.410,0.000,0
1641445409.337,-39.062,-10.742,-23.438,-34.180,0.000,0
1641445409.340,-32.227,-20.996,-27.832,-23.926,0.000,0
1641445409.344,-22.949,-25.391,-30.762,-7.812,0.000,0
1641445409.348,-32.227,-20.020,-20.996,-13.672,0.000,0
1641445409.352,-31.738,-21.484,-18.066,-24.902,0.000,0
1641445409.356,-19.531,-29.785,-27.832,-15.137,0.000,0
1641445409.360,-17.090,-34.668,-38.086,-5.371,0.000,0
1641445409.363,-24.414,-28.809,-36.621,-15.625,0.000,0
1641445409.367,-26.367,-16.602,-27.832,-19.043,0.000,0
1641445409.371,-13.184,-12.207,-31.738,-18.555,0.000,0
1641445409.375,-3.906,-11.230,-32.227,-13.672,0.000,0
1641445409.379,-17.578,-7.324,-21.973,-10.742,0.000,0
1641445409.383,-25.391,-3.906,-16.602,-19.043,0.000,0
1641445409.387,-22.949,-13.672,-24.902,-22.949,0.000,0
1641445409.391,-16.602,-18.555,-32.715,-23.926,0.000,0
1641445409.394,-19.043,-16.113,-32.227,-25.391,0.000,0
1641445409.398,-33.691,-17.578,-30.273,-29.785,0.000,0
1641445409.402,-38.086,-26.367,-42.480,-27.832,0.000,0
1641445409.406,-30.273,-24.414,-53.223,-12.207,0.000,0
1641445409.410,-25.391,-9.277,-43.457,-15.625,0.000,0
1641445409.414,-30.273,-11.719,-39.551,-27.344,0.000,0
1641445409.417,-36.621,-20.996,-38.574,-37.109,0.000,0
1641445409.421,-36.621,-20.020,-35.156,-45.410,0.000,0
1641445409.425,-20.508,-14.648,-34.180,-29.785,0.000,0
1641445409.430,-15.137,-12.207,-33.203,-30.273,0.000,0
1641445409.434,-37.109,-11.230,-35.156,-42.969,0.000,0
1641445409.437,-33.691,-18.555,-36.133,-27.344,0.000,0
1641445409.441,-14.160,-21.973,-31.250,-12.695,0.000,0
1641445409.445,-17.090,-19.043,-29.785,-21.973,0.000,0
1641445409.449,-25.879,-21.484,-30.762,-26.367,0.000,0
1641445409.453,-27.344,-23.926,-31.250,-14.160,0.000,0
1641445409.457,-10.254,-22.949,-31.738,-6.348,0.000,0
1641445409.460,-9.766,-25.391,-31.250,-10.742,0.000,0
1641445409.464,-37.109,-29.785,-30.762,-20.020,0.000,0
1641445409.468,-35.156,-20.020,-25.879,-24.414,0.000,0
1641445409.472,-15.625,-16.113,-27.344,-15.137,0.000,0
1641445409.477,-3.418,-19.531,-32.715,-3.418,0.000,0
1641445409.480,-16.602,-18.066,-33.203,-12.695,0.000,0
1641445409.484,-34.180,-14.648,-33.203,-21.484,0.000,0
1641445409.488,-22.949,-13.184,-33.691,-13.184,0.000,0
1641445409.492,-2.930,-15.625,-36.621,-7.324,0.000,0
1641445409.496,-6.836,-13.184,-30.273,-13.184,0.000,0
1641445409.500,-17.578,-9.766,-28.320,-21.484,0.000,0
1641445409.503,-11.230,-9.277,-28.809,-16.113,0.000,0
1641445409.507,-3.418,-19.531,-32.715,-2.441,0.000,0
1641445409.511,-16.113,-21.484,-36.133,-5.859,0.000,0
1641445409.515,-21.484,-8.301,-26.855,-21.484,0.000,0
1641445409.519,-21.484,-10.742,-35.645,-33.691,0.000,0
1641445409.523,-19.531,-17.090,-44.922,-24.414,0.000,0
1641445409.527,-12.695,-15.137,-36.133,-17.090,0.000,0
1641445409.531,-22.949,-12.695,-26.855,-16.113,0.000,0
1641445409.535,-24.414,-16.113,-28.320,-13.672,0.000,0
1641445409.539,-15.625,-18.066,-31.738,-12.695,0.000,0
1641445409.542,-14.648,-20.996,-36.621,-10.254,0.000,0
1641445409.546,-21.484,-20.508,-37.598,-18.555,0.000,0
1641445409.550,-23.438,-18.555,-29.785,-15.137,0.000,1
1641445409.554,-23.438,-26.855,-32.715,-19.043,0.000,0
1641445409.558,-26.855,-21.973,-35.156,-18.555,0.000,0
1641445409.562,-32.715,-18.066,-31.250,-25.879,0.000,0
1641445409.566,-44.434,-24.414,-34.180,-38.574,0.000,0
1641445409.570,-40.527,-28.320,-37.109,-34.180,0.000,0
1641445409.574,-23.438,-23.438,-31.738,-29.297,0.000,0
1641445409.578,-22.949,-18.066,-29.297,-28.809,0.000,0
1641445409.581,-31.738,-19.531,-32.715,-32.227,0.000,0
1641445409.585,-34.180,-15.137,-30.762,-21.973,0.000,0
1641445409.589,-25.879,-14.648,-33.203,-11.230,0.000,0
1641445409.593,-16.602,-19.531,-38.574,-15.625,0.000,0
1641445409.597,-34.180,-24.902,-40.527,-21.973,0.000,0
1641445409.601,-39.551,-21.484,-36.621,-17.578,0.000,0
1641445409.605,-27.344,-14.160,-30.762,-9.277,0.000,0
1641445409.608,-22.949,-17.090,-36.621,-10.254,0.000,0
1641445409.612,-25.391,-16.113,-39.062,-28.809,0.000,0
1641445409.617,-33.203,-16.602,-36.621,-32.715,0.000,0
1641445409.620,-27.344,-24.414,-41.016,-32.227,0.000,0
1641445409.624,-14.160,-30.762,-46.875,-34.180,0.000,0
1641445409.628,-18.066,-27.344,-41.992,-34.180,0.000,0
1641445409.632,-28.809,-21.973,-38.086,-37.109,0.000,0
1641445409.636,-31.250,-22.461,-42.480,-30.273,0.000,0
1641445409.640,-18.555,-19.531,-45.898,-14.648,0.000,0
1641445409.644,-11.719,-12.207,-45.410,-10.742,0.000,0
1641445409.647,-28.320,-2.441,-29.785,-20.508,0.000,0
1641445409.651,-29.297,-4.883,-27.344,-23.926,0.000,0
1641445409.655,-14.160,-15.137,-35.645,-14.160,0.000,0
1641445409.659,-11.719,-18.066,-34.668,-4.395,0.000,0
1641445409.663,-39.551,-18.555,-37.598,-19.531,0.000,0
1641445409.667,-55.176,-23.438,-40.527,-32.715,0.000,0
1641445409.671,-43.945,-33.691,-47.852,-33.691,0.000,0
1641445409.675,-30.762,-30.762,-48.340,-20.996,0.000,0
1641445409.679,-34.668,-17.578,-40.039,-14.160,0.000,0
1641445409.682,-45.898,-17.090,-44.922,-33.203,0.000,0
1641445409.686,-34.180,-27.344,-49.805,-30.273,0.000,0
1641445409.690,-10.254,-25.391,-44.434,-0.488,0.000,0
1641445409.694,-16.602,-9.277,-38.086,-13.672,0.000,0
1641445409.698,-35.156,-12.695,-41.016,-26.367,0.000,0
1641445409.702,-38.086,-20.020,-42.969,-23.438,0.000,0
1641445409.705,-32.715,-13.672,-41.504,-26.367,0.000,0
1641445409.710,-26.855,-17.090,-41.016,-28.320,0.000,0
1641445409.714,-34.668,-26.367,-43.945,-27.832,0.000,0
1641445409.717,-46.875,-16.113,-44.922,-25.879,0.000,0
1641445409.721,-34.668,-9.277,-43.945,-20.996,0.000,0
1641445409.725,-21.973,-17.090,-51.270,-13.184,0.000,0
1641445409.729,-27.344,-24.902,-50.293,-17.578,0.000,0
1641445409.733,-32.715,-29.297,-50.293,-24.414,0.000,0
1641445409.737,-33.691,-21.973,-51.758,-25.391,0.000,0
1641445409.741,-23.438,-12.695,-46.875,-18.555,0.000,0
1641445409.744,-29.785,-14.648,-50.781,-24.902,0.000,0
1641445409.748,-41.992,-16.602,-45.898,-29.297,0.000,0
1641445409.752,-43.457,-14.160,-36.133,-20.996,0.000,0
1641445409.757,-21.973,-9.766,-38.574,-2.441,0.000,0
1641445409.761,-17.090,-8.789,-39.551,2.930,0.000,0
1641445409.764,-32.715,-17.090,-41.992,-24.902,0.000,0
1641445409.768,-24.902,-24.414,-43.457,-27.832,0.000,0
1641445409.772,-12.207,-20.508,-41.016,-3.418,0.000,0
1641445409.776,-7.812,-20.508,-43.945,7.324,0.000,0
1641445409.780,-17.090,-17.090,-44.434,-11.230,0.000,0
1641445409.784,-23.438,-8.301,-36.133,-28.809,0.000,0
1641445409.787,-20.996,-13.672,-36.133,-14.160,0.000,0
1641445409.791,-7.812,-12.207,-36.133,-4.883,0.000,0
1641445409.795,-19.531,-15.625,-31.738,-6.836,0.000,0
1641445409.799,-32.227,-15.137,-31.738,-10.742,0.000,0
1641445409.804,-16.602,-15.137,-42.969,-11.719,0.000,0
1641445409.807,-12.207,-16.113,-50.293,-5.859,0.000,0
1641445409.811,-14.160,-13.184,-50.781,-14.648,0.000,0
1641445409.815,-22.949,-11.719,-46.875,-19.531,0.000,0
1641445409.819,-39.551,-16.113,-41.992,-20.508,0.000,0
1641445409.823,-33.691,-25.879,-46.875,-24.902,0.000,0
1641445409.827,-24.902,-21.484,-43.945,-10.254,0.000,0
1641445409.830,-26.367,-9.277,-29.297,-9.766,0.000,0
1641445409.834,-22.949,-12.207,-31.738,-20.508,0.000,0
1641445409.838,-11.230,-20.020,-39.062,-10.254,0.000,0
1641445409.842,-10.742,-18.555,-33.691,0.000,0.000,0
1641445409.846,-26.367,-11.719,-31.250,-11.719,0.000,0
1641445409.850,-20.020,-12.207,-37.109,-14.160,0.000,0
1641445409.854,-8.789,-15.625,-41.992,-6.836,0.000,0
1641445409.858,-14.648,-6.348,-38.574,-5.859,0.000,0
1641445409.862,-29.785,-5.371,-41.016,-6.348,0.000,0
1641445409.866,-40.039,-13.184,-41.504,-11.719,0.000,0
1641445409.870,-30.273,-16.113,-36.621,-22.461,0.000,0
1641445409.873,-11.230,-12.207,-35.156,-16.113,0.000,0
1641445409.877,-17.578,-11.719,-30.762,-21.484,0.000,0
1641445409.881,-36.133,-24.902,-28.320,-12.695,0.000,0
1641445409.885,-28.320,-25.391,-28.320,-3.418,0.000,0
1641445409.889,-16.113,-13.184,-24.902,-17.090,0.000,0
1641445409.893,-20.020,-12.695,-23.438,-14.160,0.000,0
1641445409.897,-29.297,-17.090,-24.414,-15.137,0.000,0
1641445409.901,-42.480,-20.020,-26.855,-22.461,0.000,0
1641445409.905,-44.434,-17.090,-30.762,-12.695,0.000,0
1641445409.909,-32.715,-16.602,-34.180,-2.930,0.000,0
1641445409.912,-33.691,-15.137,-31.738,-14.648,0.000,0
1641445409.916,-32.715,-8.789,-31.250,-24.902,0.000,0
1641445409.920,-21.484,-7.324,-33.203,-21.484,0.000,0
1641445409.924,-18.066,-12.695,-38.086,-13.672,0.000,0
1641445409.928,-27.344,-17.578,-40.527,-12.207,0.000,0
1641445409.932,-36.133,-12.207,-30.762,-8.301,0.000,0
1641445409.936,-29.297,-10.254,-25.879,-20.996,0.000,0
1641445409.939,-12.207,-12.695,-25.391,-18.066,0.000,0
1641445409.944,-10.742,-13.184,-23.926,-3.418,0.000,0
1641445409.948,-13.672,-8.789,-22.461,-21.484,0.000,0
1641445409.952,-19.043,-3.906,-22.461,-31.738,0.000,0
1641445409.955,-20.508,-10.254,-32.715,-20.508,0.000,0
1641445409.959,-14.648,-16.602,-37.598,-8.301,0.000,0
1641445409.963,-23.438,-14.160,-30.273,-10.254,0.000,0
1641445409.967,-31.250,-8.789,-27.832,-21.484,0.000,0
1641445409.971,-21.484,-15.137,-33.203,-17.578,0.000,0
1641445409.975,-13.672,-16.602,-36.621,0.000,0.000,0
1641445409.978,-26.855,-4.883,-29.785,-14.648,0.000,0
1641445409.982,-36.621,-8.789,-30.273,-26.367,0.000,0
1641445409.986,-28.809,-8.301,-29.785,-20.020,0.000,0
1641445409.991,-17.578,-7.324,-35.156,-9.766,0.000,0
1641445409.994,-21.484,-10.742,-35.156,-18.066,0.000,0
1641445409.998,-29.785,-13.184,-36.133,-18.066,0.000,0
1641445410.002,-28.809,-16.602,-40.527,-5.859,0.000,0
1641445410.006,-20.508,-18.066,-36.621,0.000,0.000,0
1641445410.010,-30.762,-21.484,-36.621,-14.160,0.000,0
1641445410.014,-38.574,-20.020,-41.504,-40.039,0.000,0
1641445410.017,-27.344,-16.113,-44.434,-24.902,0.000,0
1641445410.021,-12.695,-9.766,-41.016,-16.113,0.000,0
1641445410.025,-14.160,-12.207,-39.062,-22.949,0.000,0
1641445410.029,-34.180,-19.043,-38.574,-28.320,0.000,0
1641445410.033,-32.715,-15.625,-39.062,-36.133,0.000,0
1641445410.037,-19.531,-17.090,-45.410,-37.598,0.000,0
1641445410.041,-22.949,-19.531,-45.410,-26.855,0.000,0
1641445410.045,-29.297,-17.578,-40.527,-20.508,0.000,0
1641445410.049,-28.809,-14.648,-35.645,-28.809,0.000,0
1641445410.053,-21.973,-15.137,-30.273,-20.020,0.000,0
1641445410.056,-8.301,-20.996,-32.227,-0.488,0.000,0
1641445410.060,-7.812,-21.973,-37.109,-4.883,0.000,0
1641445410.064,-16.113,-14.160,-35.645,-15.625,0.000,0
1641445410.068,-19.043,-8.301,-27.832,-25.391,0.000,0
1641445410.072,-7.324,-16.113,-30.273,-25.879,0.000,0
1641445410.076,-9.766,-23.926,-36.621,-28.809,0.000,0
1641445410.079,-29.785,-21.973,-37.598,-29.785,0.000,0
1641445410.084,-23.438,-13.184,-33.691,-26.855,0.000,0
1641445410.088,-14.648,-15.625,-38.086,-31.738,0.000,0
1641445410.091,-24.414,-22.461,-38.086,-26.367,0.000,0
1641445410.095,-32.715,-15.625,-29.785,-23.438,0.000,0
1641445410.099,-27.832,-12.207,-32.715,-22.949,0.000,0
1641445410.103,-18.066,-17.090,-40.039,-18.555,0.000,0
1641445410.107,-9.277,-24.902,-44.434,-4.883,0.000,0
1641445410.111,-24.902,-19.043,-39.062,-2.930,0.000,0
1641445410.115,-38.086,-10.254,-35.645,-20.508,0.000,0
1641445410.118,-23.438,-19.043,-41.016,-24.414,0.000,0
1641445410.122,-19.043,-30.762,-41.016,-19.531,0.000,0
1641445410.126,-27.832,-29.297,-38.086,-18.066,0.000,0
1641445410.130,-33.203,-19.531,-33.203,-12.695,0.000,0
1641445410.134,-29.297,-23.926,-35.645,-17.578,0.000,0
1641445410.138,-32.715,-28.320,-39.551,-15.625,0.000,0
1641445410.142,-36.133,-28.320,-36.133,-16.602,0.000,0
1641445410.146,-35.645,-22.461,-35.156,-30.762,0.000,0
1641445410.149,-36.133,-23.438,-39.551,-30.273,0.000,0
1641445410.153,-23.926,-33.203,-41.016,-21.484,0.000,0
1641445410.157,-20.020,-22.949,-37.598,-21.484,0.000,0
1641445410.161,-17.578,-16.113,-38.574,-23.438,0.000,0
1641445410.165,-15.625,-18.066,-42.969,-19.043,0.000,0
1641445410.169,-29.297,-12.695,-41.016,-18.066,0.000,0
1641445410.173,-18.555,-13.184,-39.551,-13.184,0.000,0
1641445410.177,-8.789,-16.602,-37.598,-13.672,0.000,0
1641445410.181,-28.809,-15.625,-30.273,-18.555,0.000,0
1641445410.185,-36.133,-12.207,-28.320,-20.508,0.000,0
1641445410.189,-20.996,-6.836,-32.227,-15.137,0.000,0
1641445410.193,-32.227,-11.230,-33.691,-7.324,0.000,0
1641445410.196,-44.434,-10.742,-31.250,-8.301,0.000,0
1641445410.200,-38.574,-14.648,-26.367,-21.973,0.000,0
1641445410.204,-27.344,-19.531,-27.832,-29.785,0.000,0
1641445410.208,-21.973,-15.137,-27.832,-12.207,0.000,0
1641445410.212,-29.297,-18.066,-26.855,-11.719,0.000,0
1641445410.216,-34.180,-17.578,-26.367,-16.602,0.000,0
1641445410.219,-21.973,-10.742,-25.879,-6.348,0.000,0
1641445410.224,-20.020,-14.160,-34.668,-7.324,0.000,0
1641445410.228,-30.762,-16.602,-38.086,-28.809,0.000,0
1641445410.232,-31.250,-8.789,-33.203,-28.320,0.000,0
1641445410.236,-21.484,-9.277,-37.598,-19.043,0.000,0
1641445410.239,-7.324,-15.625,-44.922,-17.578,0.000,0
1641445410.243,-22.461,-19.531,-41.504,-13.672,0.000,0
1641445410.247,-32.227,-19.043,-36.133,-20.996,0.000,0
1641445410.251,-25.879,-17.578,-40.527,-23.438,0.000,0
1641445410.255,-12.207,-23.926,-44.434,-7.812,0.000,0
1641445410.259,-10.254,-22.949,-41.016,-2.930,0.000,0
1641445410.262,-24.414,-14.160,-36.133,-19.043,0.000,0
1641445410.266,-20.996,-15.625,-34.180,-17.090,0.000,0
1641445410.271,-8.789,-18.066,-37.598,-16.113,0.000,0
1641445410.275,-15.625,-17.578,-41.504,-25.391,0.000,0
1641445410.278,-35.645,-15.625,-37.109,-31.250,0.000,0
1641445410.282,-42.969,-10.254,-36.621,-39.062,0.000,0
1641445410.286,-24.414,-14.648,-41.504,-29.785,0.000,0
1641445410.290,-8.789,-23.438,-43.945,-16.113,0.000,0
1641445410.294,-13.672,-19.043,-36.133,-18.555,0.000,0
1641445410.298,-18.066,-16.602,-33.203,-32.227,0.000,0
1641445410.302,-14.160,-27.344,-43.945,-22.949,0.000,0
1641445410.305,-8.301,-24.414,-43.945,-5.859,0.000,0
1641445410.309,-6.836,-16.602,-34.180,-9.766,0.000,0
1641445410.313,-22.949,-16.602,-35.156,-20.508,0.000,0
1641445410.318,-23.926,-18.066,-37.598,-19.043,0.000,0
1641445410.321,-6.348,-18.555,-36.133,-11.230,0.000,0
1641445410.325,-17.090,-22.949,-40.039,-14.648,0.000,0
1641445410.329,-28.809,-28.320,-39.062,-27.344,0.000,0
1641445410.333,-25.391,-23.438,-37.598,-29.297,0.000,0
1641445410.337,-11.719,-20.020,-38.574,-17.090,0.000,0
1641445410.341,-4.395,-17.578,-39.551,-13.184,0.000,0
1641445410.344,-9.277,-18.066,-42.969,-12.207,0.000,0
1641445410.348,-15.625,-18.555,-39.062,-15.625,0.000,0
1641445410.352,-6.836,-16.113,-32.715,-10.742,0.000,1
1641445410.356,-11.230,-22.461,-42.969,-5.859,0.000,0
1641445410.360,-30.273,-18.066,-36.621,-13.672,0.000,0
1641445410.364,-30.273,-16.602,-26.367,-22.461,0.000,0
1641445410.368,-15.625,-21.484,-34.180,-21.484,0.000,0
1641445410.372,-0.488,-22.461,-37.598,-12.695,0.000,0
1641445410.376,-12.695,-20.020,-35.645,-14.160,0.000,0
1641445410.380,-24.414,-19.531,-32.227,-26.367,0.000,0
1641445410.384,-21.484,-19.043,-36.621,-27.832,0.000,0
1641445410.387,-14.160,-20.020,-42.969,-4.395,0.000,0
1641445410.391,-9.766,-27.344,-45.898,-6.348,0.000,0
1641445410.395,-30.273,-18.555,-33.691,-16.113,0.000,0
1641445410.399,-40.039,-12.207,-24.414,-10.254,0.000,0
1641445410.403,-21.973,-23.926,-36.133,-4.395,0.000,0
1641445410.407,-9.277,-25.391,-40.039,-7.324,0.000,0
1641445410.411,-26.367,-16.602,-34.668,-25.391,0.000,0
1641445410.415,-28.320,-20.020,-36.621,-29.297,0.000,0
1641445410.419,-14.160,-22.949,-38.086,-17.090,0.000,0
1641445410.422,-6.348,-15.137,-33.691,-13.672,0.000,0
1641445410.426,-10.254,-13.672,-32.227,-18.066,0.000,0
1641445410.430,-16.602,-15.137,-34.180,-14.160,0.000,0
1641445410.434,-25.391,-18.066,-40.039,-18.066,0.000,0
1641445410.438,-20.508,-16.602,-40.527,-16.602,0.000,0
1641445410.442,-14.160,-11.719,-29.297,-20.020,0.000,0
1641445410.446,-26.855,-19.043,-27.344,-25.391,0.000,0
1641445410.449,-25.879,-18.555,-32.227,-14.648,0.000,0
1641445410.453,-11.719,-17.578,-33.203,-1.953,0.000,0
1641445410.458,-21.484,-19.043,-30.273,-6.348,0.000,0
1641445410.461,-32.227,-22.461,-32.715,-20.996,0.000,0
1641445410.465,-15.625,-18.555,-34.668,-27.832,0.000,0
1641445410.469,-6.836,-15.625,-34.180,-19.531,0.000,0
1641445410.473,-17.090,-15.137,-35.156,-9.766,0.000,0
1641445410.477,-34.668,-16.113,-37.109,-23.438,0.000,0
1641445410.481,-39.062,-25.391,-41.016,-17.090,0.000,0
1641445410.485,-32.715,-21.484,-41.992,-9.277,0.000,0
1641445410.488,-22.461,-13.672,-36.133,-13.184,0.000,0
1641445410.492,-20.020,-19.043,-30.273,-20.996,0.000,0
1641445410.496,-19.043,-19.531,-33.203,-17.578,0.000,0
1641445410.500,-17.578,-13.672,-38.574,-17.090,0.000,0
1641445410.504,-17.578,-17.578,-44.922,-15.625,0.000,0
1641445410.508,-20.020,-22.949,-46.387,-22.461,0.000,0
1641445410.512,-25.879,-20.996,-41.016,-21.484,0.000,0
1641445410.516,-27.344,-19.043,-39.551,-18.555,0.000,0
1641445410.520,-20.996,-17.578,-43.945,-26.855,0.000,0
1641445410.523,-19.043,-22.949,-46.875,-9.277,0.000,0
1641445410.527,-27.344,-23.438,-43.457,-7.812,0.000,0
1641445410.531,-39.551,-15.137,-38.574,-17.578,0.000,0
1641445410.535,-36.133,-10.742,-33.691,-11.719,0.000,0
1641445410.539,-27.344,-20.020,-40.527,-1.465,0.000,0
1641445410.543,-38.574,-22.949,-42.969,-14.648,0.000,0
1641445410.546,-37.109,-13.672,-37.109,-24.414,0.000,0
1641445410.551,-21.973,-18.066,-41.992,-15.625,0.000,0
1641445410.555,-10.254,-20.020,-43.457,-13.672,0.000,0
1641445410.559,-24.414,-16.113,-34.668,-18.066,0.000,0
1641445410.563,-32.227,-12.207,-27.344,-13.184,0.000,0
1641445410.566,-19.043,-14.648,-32.715,-12.695,0.000,0
1641445410.570,-10.742,-21.484,-39.062,-8.789,0.000,0
1641445410.574,-13.672,-20.996,-37.109,-8.789,0.000,0
1641445410.578,-30.273,-16.602,-35.645,-15.137,0.000,0
1641445410.582,-25.879,-17.578,-32.715,-16.602,0.000,0
1641445410.586,-15.137,-20.020,-36.133,-5.371,0.000,0
1641445410.590,-17.090,-15.625,-34.668,-5.859,0.000,0
1641445410.593,-21.973,-16.113,-25.879,-17.578,0.000,0
1641445410.598,-28.320,-21.484,-31.250,-6.348,0.000,0
1641445410.602,-13.672,-23.438,-38.086,0.977,0.000,0
1641445410.606,-10.254,-22.949,-42.480,-11.719,0.000,0
1641445410.609,-31.250,-24.414,-43.457,-17.578,0.000,0
1641445410.613,-37.109,-27.832,-46.387,-27.832,0.000,0
1641445410.617,-31.738,-25.879,-53.223,-32.227,0.000,0
1641445410.621,-27.832,-22.461,-50.293,-12.207,0.000,0
1641445410.625,-23.438,-20.020,-38.574,-14.160,0.000,0
1641445410.629,-30.762,-23.926,-39.062,-16.113,0.000,0
1641445410.633,-41.016,-29.785,-38.574,-15.137,0.000,0
1641445410.636,-25.879,-20.996,-32.227,-15.137,0.000,0
1641445410.640,-15.625,-15.625,-37.109,-12.695,0.000,0
1641445410.645,-24.902,-15.625,-40.527,-21.973,0.000,0
1641445410.649,-21.973,-15.137,-37.109,-20.020,0.000,0
1641445410.652,-10.742,-8.789,-35.156,-13.672,0.000,0
1641445410.656,-6.836,-12.695,-34.668,-9.277,0.000,0
1641445410.660,-21.973,-19.531,-33.691,-13.672,0.000,0
1641445410.664,-29.785,-15.625,-32.715,-7.812,0.000,0
1641445410.668,-17.578,-14.160,-32.227,-1.953,0.000,0
1641445410.672,-17.090,-20.996,-32.715,-10.742,0.000,0
1641445410.676,-29.785,-29.785,-35.645,-19.531,0.000,0
1641445410.679,-34.180,-20.996,-35.156,-23.438,0.000,0
1641445410.683,-26.367,-14.648,-38.086,-21.484,0.000,0
1641445410.687,-13.672,-22.461,-44.922,-11.230,0.000,0
1641445410.692,-15.625,-21.484,-41.016,-4.395,0.000,0
1641445410.695,-17.578,-14.160,-34.180,-4.883,0.000,0
1641445410.699,-12.207,-11.719,-33.691,-10.254,0.000,0
1641445410.703,-3.418,-18.555,-42.480,-5.371,0.000,0
1641445410.707,-0.488,-24.414,-49.316,-5.371,0.000,0
1641445410.711,-29.297,-22.949,-44.922,-20.020,0.000,0
1641445410.715,-47.363,-19.043,-43.457,-25.879,0.000,0
1641445410.718,-28.809,-26.367,-49.805,-19.531,0.000,0
1641445410.722,-19.531,-28.809,-49.316,-10.254,0.000,0
1641445410.726,-34.180,-16.113,-36.133,-13.672,0.000,0
1641445410.730,-47.363,-20.020,-41.992,-23.438,0.000,0
1641445410.734,-36.621,-23.438,-50.781,-15.137,0.000,0
1641445410.738,-31.738,-20.020,-41.992,-1.465,0.000,0
1641445410.742,-42.480,-21.973,-34.668,-20.020,0.000,0
1641445410.746,-43.945,-27.344,-37.109,-31.250,0.000,0
1641445410.750,-32.715,-25.391,-35.156,-27.832,0.000,0
1641445410.754,-15.625,-16.602,-27.832,-26.367,0.000,0
1641445410.758,-22.949,-13.184,-33.203,-23.438,0.000,0
1641445410.761,-29.785,-11.719,-36.621,-28.809,0.000,0
1641445410.765,-30.273,-17.090,-36.621,-29.785,0.000,0
1641445410.769,-25.879,-14.160,-33.691,-20.020,0.000,0
1641445410.773,-16.113,-6.836,-31.250,-19.531,0.000,0
1641445410.777,-29.297,-17.090,-40.039,-37.109,0.000,0
1641445410.781,-42.969,-16.602,-41.016,-37.598,0.000,0
1641445410.785,-25.879,-11.230,-36.133,-20.020,0.000,0
1641445410.789,-21.973,-15.137,-34.180,-17.578,0.000,0
1641445410.793,-30.273,-18.066,-31.250,-26.855,0.000,0
1641445410.797,-33.691,-17.090,-33.203,-33.691,0.000,0
1641445410.801,-23.926,-9.766,-34.180,-26.367,0.000,0
1641445410.805,-7.324,-7.812,-40.039,-18.555,0.000,0
1641445410.808,-20.508,-18.555,-49.316,-20.996,0.000,0
1641445410.812,-37.109,-20.020,-47.852,-17.578,0.000,0
1641445410.816,-32.715,-8.301,-32.715,-22.949,0.000,0
1641445410.820,-18.555,-16.113,-37.109,-18.066,0.000,0
1641445410.824,-22.461,-21.973,-46.875,-17.578,0.000,0
1641445410.828,-38.574,-14.160,-33.691,-28.809,0.000,0
1641445410.832,-41.504,-14.160,-32.227,-34.668,0.000,0
1641445410.836,-22.949,-17.090,-42.969,-17.090,0.000,0
1641445410.840,-14.648,-14.648,-42.480,-7.812,0.000,0
1641445410.843,-26.367,-9.277,-36.133,-15.137,0.000,0
1641445410.847,-35.156,-11.719,-39.062,-14.160,0.000,0
1641445410.851,-25.879,-23.438,-52.246,-16.113,0.000,0
1641445410.855,-10.742,-26.855,-49.316,-11.230,0.000,0
1641445410.859,-17.578,-19.531,-36.621,-21.484,0.000,0
1641445410.863,-23.926,-15.137,-35.156,-25.391,0.000,0
1641445410.867,-9.277,-14.648,-36.133,-10.254,0.000,0
1641445410.870,-2.930,-19.043,-37.598,3.418,0.000,0
1641445410.874,-16.113,-13.672,-33.691,-7.812,0.000,0
1641445410.879,-24.414,-5.859,-32.227,-26.855,0.000,0
1641445410.882,-25.391,-11.230,-36.621,-27.832,0.000,0
1641445410.886,-8.301,-11.719,-38.574,-9.766,0.000,0
1641445410.890,-9.277,-9.277,-42.480,-14.648,0.000,0
1641445410.894,-35.156,-8.789,-46.387,-37.109,0.000,0
1641445410.898,-29.297,-16.113,-52.734,-20.996,0.000,0
1641445410.902,-16.113,-23.438,-54.199,-13.672,0.000,0
1641445410.905,-21.484,-14.648,-43.457,-30.762,0.000,0
1641445410.909,-21.484,-11.230,-37.109,-32.227,0.000,0
1641445410.913,-22.949,-12.695,-39.062,-21.973,0.000,0
1641445410.917,-28.320,-11.719,-43.945,-24.414,0.000,0
1641445410.921,-23.438,-13.672,-43.945,-17.578,0.000,0
1641445410.925,-29.297,-14.648,-40.039,-14.160,0.000,0
1641445410.929,-47.852,-19.531,-40.527,-14.648,0.000,0
1641445410.933,-37.109,-26.855,-41.504,-23.438,0.000,0
1641445410.937,-16.113,-28.320,-40.039,-21.484,0.000,0
1641445410.941,-19.531,-30.762,-40.527,-15.137,0.000,0
1641445410.945,-27.344,-32.227,-38.086,-27.344,0.000,0
1641445410.949,-31.250,-31.250,-35.645,-29.785,0.000,0
1641445410.952,-15.625,-22.949,-33.203,-10.742,0.000,0
1641445410.956,-9.766,-20.508,-33.203,-10.742,0.000,0
1641445410.960,-16.602,-25.391,-29.785,-20.508,0.000,0
1641445410.964,-26.855,-17.578,-25.879,-19.043,0.000,0
1641445410.968,-18.066,-16.113,-33.691,-15.625,0.000,0
1641445410.972,-1.465,-26.855,-44.434,-14.648,0.000,0
1641445410.976,-23.926,-29.297,-41.992,-26.855,0.000,0
1641445410.980,-35.156,-22.461,-36.621,-32.227,0.000,0
1641445410.984,-20.020,-20.508,-34.180,-21.484,0.000,0
1641445410.988,-8.789,-28.809,-40.039,-17.090,0.000,0
1641445410.992,-16.113,-29.297,-38.574,-25.391,0.000,0
1641445410.995,-34.668,-24.902,-32.715,-33.203,0.000,0
1641445410.999,-37.598,-24.902,-34.180,-25.879,0.000,0
1641445411.003,-19.043,-34.180,-42.480,-3.906,0.000,0
1641445411.007,-21.973,-31.738,-49.316,-12.207,0.000,0
1641445411.011,-33.691,-19.043,-40.039,-35.156,0.000,0
1641445411.015,-40.527,-21.973,-41.504,-34.668,0.000,0
1641445411.019,-28.320,-23.926,-41.016,-24.414,0.000,0
1641445411.023,-17.090,-22.461,-40.527,-17.578,0.000,0
1641445411.027,-33.691,-24.902,-43.457,-26.367,0.000,0
1641445411.031,-32.227,-27.832,-39.062,-30.762,0.000,0
1641445411.035,-25.879,-27.344,-40.039,-18.555,0.000,0
1641445411.038,-26.367,-26.367,-39.551,-20.020,0.000,0
1641445411.042,-23.926,-21.484,-36.621,-18.066,0.000,0
1641445411.046,-23.926,-20.020,-36.621,-16.602,0.000,0
1641445411.050,-14.160,-28.320,-40.039,-18.066,0.000,0
1641445411.054,-8.301,-25.391,-37.109,-16.113,0.000,0
1641445411.058,-32.715,-21.973,-38.086,-24.414,0.000,0
1641445411.062,-45.898,-24.902,-43.945,-31.738,0.000,0
1641445411.066,-32.715,-20.508,-40.527,-32.715,0.000,0
1641445411.070,-17.090,-17.090,-29.785,-7.812,0.000,0
1641445411.074,-22.461,-18.066,-30.273,-8.301,0.000,0
1641445411.078,-29.297,-22.949,-33.691,-23.438,0.000,0
1641445411.081,-29.297,-22.461,-30.273,-20.996,0.000,0
1641445411.085,-21.973,-24.414,-40.039,-20.508,0.000,0
1641445411.089,-15.137,-30.273,-41.992,-12.695,0.000,0
1641445411.093,-20.508,-28.809,-41.504,-14.648,0.000,0
1641445411.097,-28.809,-24.902,-44.922,-25.879,0.000,0
1641445411.101,-29.297,-16.602,-40.039,-30.762,0.000,0
1641445411.104,-20.996,-17.578,-41.992,-27.344,0.000,0
1641445411.108,-21.973,-15.137,-39.062,-32.227,0.000,0
1641445411.113,-26.855,-14.160,-34.180,-35.156,0.000,0
1641445411.117,-18.066,-19.043,-38.086,-25.879,0.000,0
1641445411.120,0.488,-16.602,-38.086,-7.324,0.000,0
1641445411.124,-7.812,-13.672,-39.551,-16.113,0.000,0
1641445411.128,-20.996,-9.766,-40.039,-20.020,0.000,0
1641445411.132,-17.578,-8.301,-37.109,-14.648,0.000,0
1641445411.136,-2.441,-10.742,-39.062,-10.742,0.000,0
1641445411.140,0.488,-14.648,-41.992,-3.418,0.000,0
1641445411.144,-12.207,-7.812,-30.273,-9.277,0.000,0
1641445411.147,-20.508,0.000,-19.531,0.488,0.000,0
1641445411.151,-15.625,-6.836,-27.832,4.883,0.000,0
1641445411.155,-11.719,-12.207,-34.180,-9.277,0.000,0
1641445411.159,-31.250,-10.254,-30.273,-12.207,0.000,0
1641445411.163,-37.109,-8.789,-29.297,-21.973,0.000,0
1641445411.167,-26.367,-14.648,-35.156,-24.414,0.000,0
1641445411.171,-25.879,-22.949,-39.062,-12.695,0.000,0
1641445411.175,-29.785,-23.438,-36.133,-16.602,0.000,0
1641445411.179,-31.250,-21.484,-31.250,-25.391,0.000,0
1641445411.183,-27.344,-31.250,-31.250,-16.602,0.000,0
1641445411.186,-16.602,-33.691,-35.156,-7.812,0.000,1
1641445411.190,-25.391,-15.625,-30.273,-14.648,0.000,0
1641445411.194,-41.992,-16.602,-33.691,-20.508,0.000,0
1641445411.198,-41.016,-27.832,-40.527,-20.020,0.000,0
1641445411.202,-20.020,-22.461,-36.621,-13.184,0.000,0
1641445411.206,-13.184,-12.695,-29.785,-8.789,0.000,0
1641445411.210,-24.414,-15.137,-30.762,-6.836,0.000,0
1641445411.214,-29.785,-18.555,-36.621,-17.090,0.000,0
1641445411.218,-21.973,-13.184,-34.668,-14.160,0.000,0
1641445411.222,-12.207,-15.137,-29.297,-2.441,0.000,0
1641445411.225,-24.414,-20.020,-34.180,-4.883,0.000,0
1641445411.229,-29.785,-23.926,-47.363,-19.043,0.000,0
1641445411.233,-24.414,-22.461,-51.270,-34.668,0.000,0
1641445411.237,-20.996,-17.090,-43.945,-31.738,0.000,0
1641445411.241,-21.973,-17.090,-43.457,-26.367,0.000,0
1641445411.245,-27.344,-14.160,-41.504,-30.273,0.000,0
1641445411.248,-33.691,-16.602,-38.574,-31.738,0.000,0
1641445411.253,-20.996,-20.020,-45.410,-26.367,0.000,0
1641445411.257,-16.602,-23.438,-51.270,-23.926,0.000,0
1641445411.260,-31.738,-25.391,-42.969,-21.973,0.000,0
1641445411.264,-25.879,-18.555,-35.645,-18.555,0.000,0
1641445411.268,-16.113,-19.043,-41.992,-11.719,0.000,0
1641445411.272,-17.090,-27.344,-47.363,-8.789,0.000,0
1641445411.276,-20.508,-24.414,-40.527,-21.973,0.000,0
1641445411.280,-16.113,-12.695,-29.785,-27.344,0.000,0
1641445411.284,-8.301,-11.230,-36.133,-20.508,0.000,0
1641445411.287,-13.672,-23.926,-46.875,-8.789,0.000,0
1641445411.291,-21.973,-25.879,-41.016,-20.020,0.000,0
1641445411.295,-26.367,-15.137,-28.809,-32.715,0.000,0
1641445411.300,-17.578,-17.578,-28.320,-21.484,0.000,0
1641445411.303,-4.883,-21.484,-41.016,-20.508,0.000,0
1641445411.307,-20.508,-16.602,-41.504,-26.367,0.000,0
1641445411.311,-26.367,-10.254,-33.203,-30.273,0.000,0
1641445411.315,-19.043,-16.113,-41.504,-32.227,0.000,0
1641445411.319,-11.719,-21.484,-46.875,-14.648,0.000,0
1641445411.323,-11.719,-19.531,-40.039,-13.672,0.000,0
1641445411.327,-11.719,-19.531,-33.691,-26.855,0.000,0
1641445411.330,-12.695,-20.508,-32.715,-24.414,0.000,0
1641445411.334,-15.137,-20.020,-39.551,-14.648,0.000,0
1641445411.338,-8.789,-17.090,-37.598,-11.230,0.000,0
1641445411.342,-12.695,-16.602,-37.598,-17.090,0.000,0
1641445411.347,-6.348,-12.695,-35.156,-5.371,0.000,0
1641445411.350,1.953,-16.602,-34.668,-7.812,0.000,0
1641445411.354,-2.441,-23.438,-40.527,-16.602,0.000,0
1641445411.358,-5.859,-19.531,-37.598,-16.602,0.000,0
1641445411.362,-12.207,-19.531,-34.668,-22.461,0.000,0
1641445411.366,-13.184,-20.996,-37.109,-19.043,0.000,0
1641445411.370,-1.465,-18.066,-34.180,-11.230,0.000,0
1641445411.373,-4.395,-9.277,-27.832,-16.602,0.000,0
1641445411.377,-13.184,-18.555,-36.621,-18.066,0.000,0
1641445411.381,-10.742,-23.926,-41.992,-16.602,0.000,0
1641445411.385,-4.395,-13.184,-35.645,-14.160,0.000,0
1641445411.389,-8.789,-15.137,-36.133,-19.531,0.000,0
1641445411.393,-28.320,-18.555,-34.668,-34.180,0.000,0
1641445411.397,-31.250,-19.531,-29.785,-25.391,0.000,0
1641445411.401,-11.719,-20.996,-32.715,-17.090,0.000,0
1641445411.405,-5.859,-22.949,-35.156,-20.508,0.000,0
1641445411.409,-27.344,-25.391,-35.156,-25.879,0.000,0
1641445411.413,-28.809,-22.461,-30.273,-18.066,0.000,0
1641445411.417,-6.348,-15.625,-29.785,-6.348,0.000,0
1641445411.420,4.395,-11.230,-35.645,-14.160,0.000,0
1641445411.424,-1.465,-14.160,-39.062,-11.230,0.000,0
1641445411.428,-25.879,-11.230,-32.715,-7.324,0.000,0
1641445411.432,-30.762,-12.207,-26.855,-11.230,0.000,0
1641445411.436,-3.418,-20.020,-27.832,8.301,0.000,0
1641445411.440,-9.766,-18.066,-28.809,-2.930,0.000,0
1641445411.444,-31.738,-15.137,-27.344,-23.926,0.000,0
1641445411.448,-21.484,-15.137,-21.973,-19.043,0.000,0
1641445411.452,-7.324,-17.090,-28.320,-15.625,0.000,0
1641445411.456,-13.184,-18.555,-37.598,-15.137,0.000,0
1641445411.459,-26.367,-15.625,-39.062,-14.160,0.000,0
1641445411.463,-17.090,-15.625,-39.062,-11.719,0.000,0
1641445411.467,-6.836,-25.879,-44.434,-7.324,0.000,0
1641445411.471,-3.418,-25.391,-40.039,-5.371,0.000,0
1641445411.475,-13.672,-10.742,-29.785,-20.020,0.000,0
1641445411.479,-31.250,-11.230,-31.250,-21.973,0.000,0
1641445411.483,-19.531,-17.578,-33.203,-28.320,0.000,0
1641445411.487,-9.277,-19.531,-39.062,-28.809,0.000,0
1641445411.491,-30.273,-21.484,-33.203,-26.855,0.000,0
1641445411.495,-37.109,-20.996,-29.785,-26.855,0.000,0
1641445411.499,-32.715,-18.066,-35.156,-27.832,0.000,0
1641445411.502,-24.414,-20.508,-37.109,-34.668,0.000,0
1641445411.506,-27.344,-22.949,-41.016,-45.410,0.000,0
1641445411.510,-41.016,-22.461,-45.410,-43.457,0.000,0
1641445411.514,-32.715,-27.832,-52.734,-32.227,0.000,0
1641445411.518,-31.250,-24.902,-47.852,-24.414,0.000,0
1641445411.522,-41.016,-17.578,-43.945,-38.086,0.000,0
1641445411.526,-42.480,-29.785,-43.457,-47.852,0.000,0
1641445411.529,-43.457,-33.691,-43.457,-38.086,0.000,0
1641445411.534,-33.691,-20.020,-42.969,-20.996,0.000,0
1641445411.538,-23.926,-19.043,-42.480,-9.277,0.000,0
1641445411.541,-31.738,-25.391,-41.992,-28.320,0.000,0
1641445411.545,-30.273,-22.461,-39.062,-39.062,0.000,0
1641445411.549,-26.855,-20.996,-41.016,-31.738,0.000,0
1641445411.553,-26.855,-29.785,-42.480,-30.273,0.000,0
1641445411.557,-25.391,-34.180,-44.434,-35.156,0.000,0
1641445411.561,-25.879,-29.297,-38.574,-14.648,0.000,0
1641445411.565,-29.297,-20.508,-30.762,-13.184,0.000,0
1641445411.568,-22.461,-21.484,-32.227,-18.555,0.000,0
1641445411.572,-27.832,-27.832,-41.504,-23.926,0.000,0
1641445411.576,-34.668,-16.602,-43.457,-23.438,0.000,0
1641445411.580,-33.203,-12.207,-39.062,-17.090,0.000,0
1641445411.584,-17.578,-22.461,-45.898,-21.973,0.000,0
1641445411.588,-7.812,-19.043,-46.875,-23.438,0.000,0
1641445411.592,-21.484,-13.672,-40.527,-21.484,0.000,0
1641445411.596,-21.484,-12.695,-39.062,-10.742,0.000,0
1641445411.600,-12.207,-18.066,-45.898,-10.254,0.000,0
1641445411.604,-4.395,-27.832,-50.781,-0.488,0.000,0
1641445411.607,-29.297,-21.484,-45.410,-11.230,0.000,0
1641445411.611,-41.016,-10.742,-43.457,-27.344,0.000,0
1641445411.615,-26.367,-18.555,-53.223,-20.020,0.000,0
1641445411.619,-21.484,-27.344,-56.152,-19.531,0.000,0
1641445411.623,-29.785,-22.461,-46.875,-37.598,0.000,0
1641445411.627,-30.762,-18.555,-37.109,-35.156,0.000,0
1641445411.631,-15.137,-17.090,-41.504,-25.391,0.000,0
1641445411.635,-3.906,-14.160,-45.410,-21.484,0.000,0
1641445411.639,-9.766,-12.207,-39.551,-15.625,0.000,0
1641445411.642,-25.391,-10.742,-39.062,-18.066,0.000,0
1641445411.646,-19.043,-17.578,-44.922,-17.578,0.000,0
1641445411.650,-13.184,-21.484,-49.805,-20.996,0.000,0
1641445411.654,-25.879,-17.090,-47.852,-21.973,0.000,0
1641445411.658,-32.227,-17.090,-44.434,-18.066,0.000,0
1641445411.662,-31.250,-25.391,-51.270,-19.531,0.000,0
1641445411.666,-27.344,-20.020,-46.875,-21.973,0.000,0
1641445411.669,-9.766,-7.812,-36.621,-13.184,0.000,0
1641445411.674,-5.859,-11.230,-36.133,-15.625,0.000,0
1641445411.678,-15.625,-15.625,-37.598,-23.926,0.000,0
1641445411.682,-19.043,-13.184,-44.434,-23.926,0.000,0
1641445411.686,-12.695,-9.766,-46.875,-19.043,0.000,0
1641445411.689,-8.789,-15.137,-40.527,-15.137,0.000,0
1641445411.693,-20.508,-20.508,-38.574,-18.555,0.000,0
1641445411.697,-20.020,-18.066,-38.086,-18.555,0.000,0
1641445411.701,-4.883,-15.137,-37.598,-6.348,0.000,0
1641445411.705,-18.555,-19.531,-39.062,-8.789,0.000,0
1641445411.709,-32.227,-17.090,-39.551,-15.137,0.000,0
1641445411.713,-19.043,-6.348,-36.621,-14.160,0.000,0
1641445411.716,-8.301,-6.836,-33.691,-13.672,0.000,0
1641445411.721,-5.859,-12.207,-38.086,-10.742,0.000,0
1641445411.725,-18.555,-11.230,-39.551,-13.672,0.000,0
1641445411.729,-29.785,-10.254,-38.574,-26.367,0.000,0
1641445411.732,-19.043,-9.766,-39.551,-24.902,0.000,0
1641445411.736,-5.859,-18.066,-44.922,-13.184,0.000,0
1641445411.740,-11.719,-21.484,-52.246,-12.207,0.000,0
1641445411.744,-19.043,-17.090,-45.410,-14.648,0.000,0
1641445411.748,-12.207,-15.625,-41.992,-13.672,0.000,0
1641445411.752,-2.441,-25.391,-51.270,-1.953,0.000,0
1641445411.756,-16.113,-29.297,-51.270,-18.066,0.000,0
1641445411.759,-27.344,-20.508,-44.434,-35.156,0.000,0
1641445411.763,-26.855,-22.949,-46.387,-34.180,0.000,0
1641445411.768,-15.137,-23.438,-46.875,-31.250,0.000,0
1641445411.772,-5.859,-15.137,-44.434,-25.879,0.000,0
1641445411.775,-9.766,-5.859,-39.551,-26.855,0.000,0
1641445411.779,-11.230,-9.766,-39.551,-21.484,0.000,0
1641445411.783,0.977,-13.672,-40.527,-4.395,0.000,0
1641445411.787,3.418,-13.184,-38.574,-5.371,0.000,0
1641445411.791,-18.066,-10.742,-35.156,-21.484,0.000,0
1641445411.795,-30.273,-13.184,-38.574,-20.508,0.000,0
1641445411.799,-20.020,-16.602,-42.969,-13.672,0.000,0
1641445411.802,-2.930,-12.695,-40.527,-7.812,0.000,0
1641445411.806,-16.113,-14.648,-40.527,-19.531,0.000,0
1641445411.810,-27.344,-19.531,-41.992,-32.715,0.000,0
1641445411.815,-26.367,-22.949,-42.480,-23.438,0.000,0
1641445411.818,-16.113,-17.578,-38.574,-8.789,0.000,0
1641445411.822,-8.789,-14.648,-37.598,-17.578,0.000,0
1641445411.826,-22.949,-16.602,-35.645,-28.809,0.000,0
1641445411.830,-24.414,-20.020,-35.645,-22.461,0.000,0
1641445411.834,-6.836,-22.949,-38.086,-20.996,0.000,0
1641445411.838,-5.371,-14.648,-37.109,-21.484,0.000,0
1641445411.842,-14.648,-20.508,-36.133,-17.578,0.000,0
1641445411.845,-30.762,-28.809,-42.969,-17.578,0.000,0
1641445411.849,-23.438,-17.578,-39.551,-18.066,0.000,0
1641445411.853,-13.184,-21.973,-39.062,-15.137,0.000,0
1641445411.857,-30.273,-24.414,-37.598,-13.672,0.000,0
1641445411.861,-26.855,-19.043,-25.879,2.441,0.000,0
1641445411.865,-12.695,-19.043,-26.367,11.719,0.000,0
1641445411.869,-4.395,-23.926,-36.133,7.812,0.000,0
1641445411.873,-10.742,-25.879,-36.133,-6.348,0.000,0
1641445411.877,-22.461,-24.414,-31.738,-16.602,0.000,0
1641445411.881,-18.066,-24.414,-35.156,-15.137,0.000,0
1641445411.884,-1.953,-21.484,-40.527,-5.371,0.000,0
1641445411.888,-10.254,-24.414,-46.387,6.836,0.000,0
1641445411.892,-29.297,-18.066,-36.621,-5.371,0.000,0
1641445411.896,-18.555,-9.277,-28.809,-20.996,0.000,0
1641445411.900,-5.371,-22.461,-37.109,-23.438,0.000,0
1641445411.904,-9.766,-28.809,-40.039,-20.020,0.000,0
1641445411.908,-20.996,-21.973,-35.645,-25.391,0.000,0
1641445411.912,-25.391,-22.461,-34.668,-17.578,0.000,0
1641445411.916,-20.996,-30.762,-43.457,-14.648,0.000,0
1641445411.920,-12.207,-31.250,-48.828,-17.090,0.000,0
1641445411.924,-26.367,-19.531,-44.922,-26.855,0.000,1
1641445411.927,-36.621,-17.090,-43.945,-30.273,0.000,0
1641445411.931,-23.926,-22.949,-44.922,-20.020,0.000,0
1641445411.935,-14.160,-27.344,-47.363,-12.695,0.000,0
1641445411.939,-27.832,-18.066,-42.969,-21.973,0.000,0
1641445411.943,-36.621,-15.625,-35.156,-25.391,0.000,0
1641445411.947,-24.902,-16.602,-34.668,-16.602,0.000,0
1641445411.951,-12.207,-12.695,-37.109,-11.230,0.000,0
1641445411.955,-6.836,-10.742,-35.645,-9.766,0.000,0
1641445411.959,-17.578,-10.742,-30.762,-11.719,0.000,0
1641445411.963,-22.461,-17.090,-31.250,-12.695,0.000,0
1641445411.966,-15.137,-20.996,-30.273,0.977,0.000,0
1641445411.970,-6.348,-20.996,-31.738,8.301,0.000,0
1641445411.974,-19.043,-22.949,-39.062,-17.090,0.000,0
1641445411.978,-18.066,-30.273,-39.062,-13.184,0.000,0
1641445411.982,-16.602,-21.973,-36.133,-12.207,0.000,0
1641445411.986,-21.973,-9.766,-34.180,-22.461,0.000,0
1641445411.990,-25.879,-17.090,-39.062,-28.809,0.000,0
1641445411.993,-30.762,-21.484,-41.992,-29.785,0.000,0
1641445411.997,-22.461,-15.137,-33.203,-22.949,0.000,0
1641445412.001,-16.113,-16.113,-36.133,-20.020,0.000,0
1641445412.005,-18.555,-20.996,-41.016,-19.043,0.000,0
1641445412.009,-24.414,-15.625,-33.691,-21.484,0.000,0
1641445412.013,-23.926,-9.766,-33.691,-23.926,0.000,0
1641445412.017,-11.230,-15.625,-37.598,-12.207,0.000,0
1641445412.021,-5.371,-27.832,-39.551,-16.113,0.000,0
1641445412.025,-17.578,-27.344,-42.480,-23.926,0.000,0
1641445412.028,-23.926,-12.695,-37.598,-28.320,0.000,0
1641445412.032,-18.555,-13.672,-39.551,-22.461,0.000,0
1641445412.036,-10.742,-21.973,-47.852,-6.348,0.000,0
1641445412.040,-15.625,-18.066,-47.852,-17.578,0.000,0
1641445412.044,-20.996,-10.742,-35.645,-24.414,0.000,0
1641445412.048,-9.766,-14.160,-32.715,-25.879,0.000,0
1641445412.052,4.395,-19.531,-40.527,-11.719,0.000,0
1641445412.056,-15.137,-14.648,-40.527,-14.648,0.000,0
1641445412.060,-28.809,-11.719,-32.715,-32.227,0.000,0
1641445412.064,-18.066,-19.043,-33.691,-21.973,0.000,0
1641445412.068,-18.555,-24.414,-41.504,0.000,0.000,0
1641445412.072,-27.344,-21.973,-41.504,-18.555,0.000,0
1641445412.075,-26.855,-15.625,-37.598,-42.480,0.000,0
1641445412.079,-19.531,-14.160,-36.621,-31.250,0.000,0
1641445412.083,-6.348,-18.555,-41.504,-13.184,0.000,0
1641445412.087,-9.766,-12.695,-37.598,-12.207,0.000,0
1641445412.091,-23.926,-13.672,-32.227,-28.809,0.000,0
1641445412.095,-16.602,-22.949,-33.691,-25.391,0.000,0
1641445412.099,0.977,-16.113,-34.180,-9.766,0.000,0
1641445412.103,8.301,-8.301,-32.227,-10.742,0.000,0
1641445412.107,0.488,-4.883,-26.367,-17.090,0.000,0
1641445412.111,1.953,-7.812,-34.668,-19.531,0.000,0
1641445412.115,5.371,-16.113,-43.457,-17.578,0.000,0
1641445412.118,-7.324,-21.484,-39.062,-18.066,0.000,0
1641445412.122,-20.508,-15.137,-34.180,-26.367,0.000,0
1641445412.126,-23.438,-22.461,-33.691,-19.043,0.000,0
1641445412.130,-17.090,-30.762,-33.203,-11.230,0.000,0
1641445412.134,-15.137,-18.555,-34.180,-15.137,0.000,0
1641445412.138,-20.508,-19.531,-42.969,-21.484,0.000,0
1641445412.142,-22.949,-18.555,-36.621,-24.902,0.000,0
1641445412.146,-28.809,-16.602,-34.180,-27.344,0.000,0
1641445412.150,-17.578,-19.531,-42.480,-16.113,0.000,0
1641445412.154,-6.836,-18.555,-37.109,-9.277,0.000,0
1641445412.158,-18.555,-18.066,-24.414,-20.996,0.000,0
1641445412.161,-20.996,-21.973,-24.902,-26.367,0.000,0
1641445412.165,-18.555,-30.762,-35.156,-23.438,0.000,0
1641445412.169,-12.207,-28.809,-37.109,-16.113,0.000,0
1641445412.173,-12.695,-20.996,-31.250,-20.020,0.000,0
1641445412.177,-19.531,-15.625,-25.879,-25.391,0.000,0
1641445412.181,-20.508,-14.648,-27.344,-19.531,0.000,0
1641445412.185,-15.137,-22.461,-33.691,-11.230,0.000,0
1641445412.189,-13.184,-20.996,-34.668,-11.719,0.000,0
1641445412.193,-17.578,-14.648,-27.344,-18.555,0.000,0
1641445412.197,-15.137,-18.555,-29.297,-26.367,0.000,0
1641445412.201,-2.930,-24.902,-32.715,-19.043,0.000,0
1641445412.204,-8.789,-27.344,-32.715,-24.414,0.000,0
1641445412.208,-24.902,-25.391,-36.133,-42.480,0.000,0
1641445412.212,-15.625,-20.508,-37.598,-32.227,0.000,0
1641445412.216,1.465,-19.531,-37.109,-7.324,0.000,0
1641445412.220,3.418,-19.043,-40.039,-9.277,0.000,0
1641445412.224,-20.508,-9.277,-29.785,-21.973,0.000,0
1641445412.228,-32.715,-8.789,-28.809,-21.973,0.000,0
1641445412.231,-13.672,-16.602,-32.715,-17.578,0.000,0
1641445412.236,-5.371,-19.043,-28.320,-7.812,0.000,0
1641445412.240,-9.766,-22.461,-24.414,-13.672,0.000,0
1641445412.243,-17.090,-28.320,-27.344,-21.973,0.000,0
1641445412.247,-21.484,-26.367,-31.250,-20.020,0.000,0
1641445412.251,-8.789,-25.391,-31.738,-11.230,0.000,0
1641445412.255,-14.160,-27.344,-33.691,-10.254,0.000,0
1641445412.259,-23.926,-23.438,-34.668,-18.555,0.000,0
1641445412.263,-4.395,-22.461,-36.621,-11.719,0.000,0
1641445412.267,8.789,-19.043,-35.645,-7.812,0.000,0
1641445412.271,-11.719,-12.207,-33.691,-27.344,0.000,0
1641445412.274,-20.996,-16.113,-33.203,-31.738,0.000,0
1641445412.278,-20.996,-20.996,-30.762,-21.973,0.000,0
1641445412.283,-15.137,-21.484,-31.250,-20.020,0.000,0
1641445412.286,-10.742,-19.043,-33.691,-11.719,0.000,0
1641445412.290,-21.484,-17.090,-35.156,-18.555,0.000,0
1641445412.294,-20.508,-13.184,-33.691,-20.020,0.000,0
1641445412.298,-9.766,-10.742,-34.180,-17.578,0.000,0
1641445412.302,1.953,-10.254,-39.062,-22.949,0.000,0
1641445412.306,-3.418,-16.602,-39.551,-19.043,0.000,0
1641445412.310,-24.414,-20.508,-35.645,-10.254,0.000,0
1641445412.313,-26.855,-10.254,-31.250,-9.277,0.000,0
1641445412.317,-7.324,-12.207,-36.133,0.977,0.000,0
1641445412.321,0.000,-20.020,-39.551,-4.395,0.000,0
1641445412.325,-12.695,-16.602,-39.062,-16.113,0.000,0
1641445412.329,-13.672,-7.324,-36.133,-10.742,0.000,0
1641445412.333,3.418,-8.301,-41.992,-7.812,0.000,0
1641445412.337,5.371,-13.672,-43.457,-13.672,0.000,0
1641445412.341,-7.324,-12.695,-38.086,-23.926,0.000,0
1641445412.345,-14.648,-12.695,-36.133,-21.484,0.000,0
1641445412.349,-8.301,-15.137,-39.551,-9.277,0.000,0
1641445412.352,3.418,-23.438,-53.223,-3.418,0.000,0
1641445412.356,-7.812,-21.973,-47.852,-13.672,0.000,0
1641445412.360,-12.695,-15.137,-39.551,-22.949,0.000,0
1641445412.364,-14.160,-17.090,-45.898,-18.066,0.000,0
1641445412.368,-6.836,-20.996,-43.945,-9.766,0.000,0
1641445412.372,-13.184,-20.508,-33.691,-14.160,0.000,0
1641445412.376,-31.738,-17.090,-35.645,-24.902,0.000,0
1641445412.380,-23.926,-19.043,-45.410,-20.996,0.000,0
1641445412.384,-5.371,-22.461,-48.340,-17.578,0.000,0
1641445412.388,-11.230,-20.020,-45.898,-23.926,0.000,0
1641445412.391,-23.438,-16.602,-42.480,-34.180,0.000,0
1641445412.395,-14.160,-20.996,-46.387,-27.344,0.000,0
1641445412.399,0.977,-23.438,-45.898,-2.930,0.000,0
1641445412.403,-1.465,-17.578,-39.551,-1.465,0.000,0
1641445412.407,-22.461,-19.531,-41.504,-20.020,0.000,0
1641445412.411,-21.973,-19.043,-41.504,-23.438,0.000,0
1641445412.415,-4.395,-11.230,-39.551,-16.602,0.000,0
1641445412.418,-5.371,-11.230,-44.922,-14.648,0.000,0
1641445412.423,-24.414,-15.137,-54.688,-18.555,0.000,0
1641445412.427,-28.809,-14.160,-51.270,-27.344,0.000,0
1641445412.431,-20.020,-20.020,-38.574,-24.414,0.000,0
1641445412.434,-13.184,-24.902,-37.109,-6.348,0.000,0
1641445412.438,-15.137,-23.438,-44.434,-12.695,0.000,0
1641445412.442,-29.297,-23.926,-45.410,-23.926,0.000,0
1641445412.446,-38.086,-28.809,-45.410,-19.043,0.000,0
1641445412.450,-23.438,-24.902,-44.922,-8.789,0.000,0
1641445412.454,-20.020,-19.531,-41.992,-13.184,0.000,0
1641445412.458,-29.785,-25.879,-42.969,-14.160,0.000,0
1641445412.462,-25.879,-22.949,-41.504,-8.301,0.000,0
1641445412.465,-11.719,-18.066,-41.504,-5.859,0.000,0
1641445412.470,-10.742,-20.508,-43.457,-8.301,0.000,0
1641445412.474,-21.484,-19.043,-38.574,-18.066,0.000,0
1641445412.478,-23.438,-13.184,-34.180,-17.578,0.000,0
1641445412.481,-17.578,-15.137,-37.109,-17.090,0.000,0
1641445412.485,-6.348,-18.555,-41.016,-10.254,0.000,0
1641445412.489,-11.719,-20.996,-39.062,-20.508,0.000,0
1641445412.493,-25.879,-20.996,-34.668,-42.969,0.000,0
1641445412.497,-24.902,-18.555,-39.062,-28.809,0.000,0
1641445412.501,-6.836,-26.855,-49.805,-4.395,0.000,0
1641445412.505,-15.137,-30.273,-42.480,-18.066,0.000,0
1641445412.508,-28.320,-16.602,-26.855,-34.668,0.000,0
1641445412.512,-25.391,-12.695,-37.598,-33.203,0.000,0
1641445412.517,-13.184,-18.066,-47.363,-27.344,0.000,0
1641445412.521,-14.648,-19.043,-41.992,-18.555,0.000,0
1641445412.524,-31.250,-16.113,-35.156,-11.230,0.000,0
1641445412.528,-28.320,-20.508,-33.203,-16.602,0.000,0
1641445412.532,-19.531,-22.461,-41.016,-21.484,0.000,0
1641445412.536,-22.949,-20.508,-46.387,-26.367,0.000,0
1641445412.540,-28.809,-18.066,-42.480,-43.457,0.000,0
1641445412.544,-37.109,-18.555,-42.480,-44.434,0.000,0
1641445412.548,-29.297,-23.438,-46.875,-25.879,0.000,0
1641445412.551,-5.859,-20.508,-40.039,-13.184,0.000,0
1641445412.555,-18.555,-13.672,-30.273,-25.391,0.000,0
1641445412.559,-27.344,-15.625,-30.273,-19.531,0.000,0
1641445412.564,-19.043,-17.090,-30.762,-5.859,0.000,0
1641445412.567,-11.719,-16.113,-29.785,-15.137,0.000,0
1641445412.571,-13.672,-14.648,-29.297,-20.508,0.000,0
1641445412.575,-21.484,-9.277,-32.715,-17.578,0.000,0
1641445412.579,-24.414,-12.695,-35.645,-20.020,0.000,0
1641445412.583,-16.602,-18.555,-38.574,-12.207,0.000,0
1641445412.587,-17.578,-23.926,-41.992,-6.348,0.000,0
1641445412.591,-25.879,-25.879,-39.551,-11.719,0.000,0
1641445412.594,-29.297,-21.973,-41.016,-15.137,0.000,0
1641445412.598,-29.785,-20.996,-42.480,-22.461,0.000,0
1641445412.602,-28.320,-24.902,-44.434,-23.926,0.000,0
1641445412.606,-35.645,-29.785,-44.434,-33.691,0.000,0
1641445412.610,-35.156,-29.297,-42.969,-37.598,0.000,0
1641445412.614,-20.996,-27.344,-42.969,-24.902,0.000,0
1641445412.618,-7.324,-28.320,-43.457,-8.789,0.000,0
1641445412.622,-18.555,-26.367,-44.434,-14.648,0.000,0
1641445412.626,-32.715,-25.879,-45.898,-36.621,0.000,0
1641445412.630,-26.367,-26.367,-41.992,-32.715,0.000,0
1641445412.634,-13.672,-25.879,-39.551,-11.719,0.000,0
1641445412.637,-13.672,-32.227,-39.551,-12.207,0.000,0
1641445412.641,-32.227,-28.320,-41.016,-25.391,0.000,0
1641445412.645,-31.250,-22.461,-40.039,-22.949,0.000,0
1641445412.649,-12.695,-26.367,-41.504,-12.207,0.000,0
1641445412.653,-15.625,-24.414,-45.410,-14.160,0.000,0
1641445412.657,-24.902,-21.973,-39.062,-22.949,0.000,0
1641445412.661,-27.832,-21.484,-36.621,-32.715,0.000,0
1641445412.665,-14.648,-18.555,-37.598,-22.461,0.000,0
1641445412.669,-3.906,-20.996,-38.574,-14.160,0.000,0
1641445412.673,-12.695,-18.066,-39.551,-27.344,0.000,0
1641445412.676,-18.555,-13.672,-38.574,-32.715,0.000,0
1641445412.680,-23.438,-20.020,-41.016,-21.973,0.000,0
1641445412.684,-16.113,-24.902,-43.457,-13.184,0.000,0
1641445412.688,-22.461,-13.184,-34.668,-24.414,0.000,0
1641445412.692,-30.273,-15.137,-32.227,-27.832,0.000,0
1641445412.696,-25.391,-21.973,-43.457,-29.297,0.000,0
1641445412.700,-12.207,-21.973,-42.969,-26.367,0.000,0
1641445412.704,-18.555,-22.949,-36.133,-25.391,0.000,0
1641445412.708,-36.621,-19.043,-36.621,-27.832,0.000,0
1641445412.712,-23.438,-16.602,-41.992,-26.367,0.000,0
1641445412.715,-16.113,-17.578,-41.504,-28.320,0.000,0
1641445412.719,-19.043,-20.996,-42.969,-26.367,0.000,0
1641445412.723,-20.020,-20.020,-40.039,-24.414,0.000,0
1641445412.727,-20.508,-18.555,-38.086,-20.508,0.000,0
1641445412.731,-12.695,-15.137,-39.551,-14.160,0.000,0
1641445412.735,-12.695,-6.348,-31.250,-2.930,0.000,0
1641445412.739,-21.484,-8.789,-30.273,-12.695,0.000,0
1641445412.742,-27.344,-13.672,-37.109,-35.645,0.000,0
1641445412.746,-23.926,-16.602,-41.992,-29.297,0.000,0
1641445412.751,-11.230,-20.020,-41.504,-21.973,0.000,0
1641445412.754,-25.879,-24.902,-43.457,-28.320,0.000,0
1641445412.758,-41.016,-24.902,-38.574,-27.832,0.000,0
1641445412.762,-31.738,-19.043,-34.668,-23.926,0.000,0
1641445412.766,-14.648,-18.066,-39.062,-23.926,0.000,0
1641445412.770,-15.625,-24.902,-46.875,-21.973,0.000,0
1641445412.774,-20.996,-20.508,-41.504,-18.555,0.000,0
1641445412.778,-13.184,-5.859,-30.762,-15.625,0.000,0
1641445412.781,-11.230,-7.812,-36.621,-14.160,0.000,0
1641445412.785,-10.254,-21.973,-43.457,-8.789,0.000,0
1641445412.789,-18.555,-22.949,-41.016,-25.391,0.000,0
1641445412.793,-30.273,-15.137,-35.645,-42.480,0.000,0
1641445412.797,-22.949,-17.578,-41.992,-34.180,0.000,0
1641445412.801,-14.160,-22.949,-41.016,-18.066,0.000,1
1641445412.805,-20.020,-23.438,-33.691,-15.625,0.000,0
1641445412.809,-18.555,-15.625,-30.762,-20.020,0.000,0
1641445412.813,-13.672,-12.695,-31.738,-16.602,0.000,0
1641445412.817,-11.230,-23.926,-37.598,-8.789,0.000,0
1641445412.820,-19.043,-20.020,-34.668,-14.160,0.000,0
1641445412.824,-19.531,-5.371,-23.438,-21.484,0.000,0
1641445412.828,-15.137,-5.859,-18.555,-19.531,0.000,0
1641445412.832,-3.418,-14.648,-22.949,-5.859,0.000,0
1641445412.836,-0.488,-13.184,-26.367,-2.930,0.000,0
1641445412.840,-15.625,-11.230,-22.461,-17.090,0.000,0
1641445412.844,-15.625,-20.020,-28.320,-15.625,0.000,0
1641445412.848,-2.930,-20.508,-33.691,-6.348,0.000,0
1641445412.852,0.488,-13.672,-35.156,-17.090,0.000,0
1641445412.856,-17.090,-12.207,-34.668,-30.762,0.000,0
1641445412.860,-24.414,-19.531,-35.645,-25.879,0.000,0
1641445412.864,-15.625,-29.297,-42.969,-18.555,0.000,0
1641445412.867,-5.859,-16.602,-36.133,-23.926,0.000,0
1641445412.871,-10.742,-13.672,-27.832,-28.809,0.000,0
1641445412.875,-16.602,-25.391,-29.785,-18.555,0.000,0
1641445412.879,-16.113,-24.902,-31.250,-15.137,0.000,0
1641445412.883,-8.301,-12.695,-24.902,-12.695,0.000,0
1641445412.887,-5.371,-9.766,-20.508,-7.812,0.000,0
1641445412.891,-18.555,-11.719,-21.973,-20.020,0.000,0
1641445412.895,-19.043,-3.906,-19.043,-21.484,0.000,0
1641445412.899,-5.371,2.441,-17.090,-4.395,0.000,0
1641445412.903,-10.742,-12.207,-27.832,-7.812,0.000,0
1641445412.907,-26.367,-24.414,-36.133,-19.531,0.000,0
1641445412.910,-30.273,-24.414,-40.039,-20.020,0.000,0
1641445412.914,-15.137,-22.461,-40.527,-7.324,0.000,0
1641445412.918,4.883,-21.484,-31.250,0.000,0.000,0
1641445412.922,-9.766,-22.949,-28.320,-9.277,0.000,0
1641445412.926,-26.367,-12.207,-26.855,-8.789,0.000,0
1641445412.930,-20.508,-7.812,-23.438,-6.348,0.000,0
1641445412.934,-10.742,-14.648,-30.273,-8.301,0.000,0
1641445412.938,-13.672,-14.648,-33.203,-13.184,0.000,0
1641445412.942,-18.066,-13.184,-31.738,-21.973,0.000,0
1641445412.946,-21.973,-13.184,-36.133,-25.391,0.000,0
1641445412.950,-15.137,-16.602,-38.574,-11.719,0.000,0
1641445412.953,-19.531,-17.578,-38.574,-11.230,0.000,0
1641445412.957,-26.855,-18.066,-35.156,-33.691,0.000,0
1641445412.961,-25.391,-22.949,-37.109,-32.715,0.000,0
1641445412.965,-14.160,-26.367,-41.016,-13.672,0.000,0
1641445412.969,-11.230,-29.297,-43.945,-5.371,0.000,0
1641445412.973,-29.785,-15.137,-39.551,-19.531,0.000,0
1641445412.977,-29.297,-10.742,-38.574,-26.855,0.000,0
1641445412.980,-14.160,-21.484,-43.945,-17.578,0.000,0
1641445412.985,-5.371,-21.973,-42.480,-1.465,0.000,0
1641445412.989,-20.996,-22.461,-41.992,-13.184,0.000,0
1641445412.992,-25.391,-25.391,-41.992,-20.996,0.000,0
1641445412.996,-15.625,-25.391,-40.039,-3.418,0.000,0
1641445413.000,-4.395,-22.949,-38.574,15.625,0.000,0
1641445413.004,-19.043,-21.484,-42.480,10.254,0.000,0
1641445413.008,-38.574,-20.020,-48.828,-10.254,0.000,0
1641445413.012,-20.020,-21.973,-50.781,-8.301,0.000,0
1641445413.016,-10.742,-13.672,-42.480,0.488,0.000,0
1641445413.020,-18.555,-7.812,-36.621,-20.020,0.000,0
1641445413.023,-29.785,-17.090,-40.527,-33.203,0.000,0
1641445413.027,-36.621,-18.555,-44.922,-24.902,0.000,0
1641445413.032,-17.090,-15.137,-45.898,-20.508,0.000,0
1641445413.035,4.883,-9.277,-38.086,-4.883,0.000,0
1641445413.039,1.953,-9.277,-38.086,-7.812,0.000,0
1641445413.043,-19.043,-16.113,-42.480,-24.902,0.000,0
1641445413.047,-14.160,-16.113,-40.527,-22.461,0.000,0
1641445413.051,-4.395,-17.090,-44.434,-15.137,0.000,0
1641445413.055,-18.555,-20.508,-43.457,-21.484,0.000,0
1641445413.059,-23.438,-16.602,-37.598,-18.555,0.000,0
1641445413.062,-25.391,-8.789,-39.551,-13.184,0.000,0
1641445413.066,-17.090,-14.648,-45.898,-2.930,0.000,0
1641445413.070,-9.277,-26.855,-52.246,0.977,0.000,0
1641445413.074,-20.020,-23.438,-46.875,-9.277,0.000,0
1641445413.078,-16.602,-14.160,-34.668,-10.742,0.000,0
1641445413.082,-2.930,-16.602,-39.062,-11.230,0.000,0
1641445413.086,-15.625,-16.113,-42.480,-13.184,0.000,0
1641445413.090,-20.508,-13.672,-35.156,-13.184,0.000,0
1641445413.094,-20.508,-15.137,-38.086,-21.484,0.000,0
1641445413.098,-20.508,-14.160,-42.969,-23.438,0.000,0
1641445413.101,-8.789,-24.414,-46.875,-12.695,0.000,0
1641445413.105,-13.184,-19.043,-44.434,-20.020,0.000,0
1641445413.109,-19.043,-9.766,-38.574,-25.391,0.000,0
1641445413.113,-16.113,-18.555,-42.480,-18.066,0.000,0
1641445413.117,-2.930,-19.531,-41.504,-12.695,0.000,0
1641445413.121,-0.977,-15.625,-38.086,-18.555,0.000,0
1641445413.125,-16.602,-11.230,-38.574,-27.344,0.000,0
1641445413.129,-27.832,-21.484,-43.457,-30.762,0.000,0
1641445413.133,-21.484,-28.320,-49.805,-24.902,0.000,0
1641445413.137,-14.160,-22.461,-41.992,-29.297,0.000,0
1641445413.140,-28.320,-20.996,-36.621,-40.527,0.000,0
1641445413.144,-20.996,-26.367,-41.992,-29.785,0.000,0
1641445413.148,-0.977,-25.879,-44.922,-20.020,0.000,0
1641445413.152,-11.719,-15.625,-39.062,-18.555,0.000,0
1641445413.156,-18.555,-15.137,-33.203,-20.996,0.000,0
1641445413.160,-13.672,-23.438,-34.180,-23.926,0.000,0
1641445413.164,-6.836,-25.879,-32.715,-6.348,0.000,0
1641445413.167,-4.395,-25.391,-35.156,-9.766,0.000,0
1641445413.172,-13.184,-16.602,-41.016,-23.926,0.000,0
1641445413.176,-25.391,-11.230,-42.969,-32.227,0.000,0
1641445413.180,-21.973,-15.625,-38.086,-30.273,0.000,0
1641445413.184,-13.184,-15.625,-37.109,-7.812,0.000,0
1641445413.187,-20.996,-17.090,-42.969,-9.766,0.000,0
1641445413.191,-21.973,-20.508,-47.852,-20.996,0.000,0
1641445413.195,-14.160,-19.531,-45.898,-20.020,0.000,0
1641445413.199,-12.207,-23.438,-39.551,-23.438,0.000,0
1641445413.203,-16.113,-24.414,-36.133,-23.438,0.000,0
1641445413.207,-19.043,-19.531,-41.504,-23.438,0.000,0
1641445413.211,-20.020,-10.254,-41.016,-22.461,0.000,0
1641445413.214,-15.625,-5.371,-37.109,-14.648,0.000,0
1641445413.219,-8.301,-13.672,-41.992,-20.020,0.000,0
1641445413.223,-20.996,-20.508,-41.992,-31.250,0.000,0
