timestamps,TP9,AF7,AF8,TP10,Right AUX
1644802098.085,0.000,0.000,0.000,0.000,0.000
1644802098.088,0.000,0.000,-1.465,0.000,0.000
1644802098.092,-3.418,-0.977,1.953,-1.953,0.000
1644802098.096,5.371,1.953,-3.906,2.441,0.000
1644802098.100,-31.250,-11.719,-8.301,-18.555,0.000
1644802098.104,-101.074,-31.738,-2.441,-71.289,0.000
1644802098.108,-121.582,-30.762,-39.551,-106.445,0.000
1644802098.112,-109.375,-27.344,-44.434,-109.863,0.000
1644802098.115,-74.707,-25.879,-32.715,-81.543,0.000
1644802098.119,-64.453,-24.902,-38.086,-58.105,0.000
1644802098.123,-78.125,-22.461,-51.270,-50.293,0.000
1644802098.127,-105.957,-27.832,-62.500,-54.199,0.000
1644802098.131,-114.746,-32.715,-62.988,-74.219,0.000,0
1644802098.134,-87.402,-25.879,-55.176,-70.312,0.000,0
1644802098.138,-79.102,-17.578,-49.805,-62.988,0.000,0
1644802098.142,-98.633,-20.020,-54.688,-64.941,0.000,0
1644802098.146,-122.070,-28.320,-63.965,-60.547,0.000,0
1644802098.150,-103.027,-29.297,-62.500,-71.289,0.000,0
1644802098.154,-81.543,-25.391,-59.082,-74.707,0.000,0
1644802098.157,-88.379,-17.578,-55.176,-65.430,0.000,0
1644802098.161,-92.773,-20.508,-52.734,-66.895,0.000,0
1644802098.165,-113.281,-30.762,-57.617,-61.035,0.000,0
1644802098.169,-125.488,-28.809,-59.082,-79.102,0.000,0
1644802098.173,-88.379,-25.879,-56.641,-79.102,0.000,0
1644802098.178,-70.312,-24.902,-47.852,-59.570,0.000,1
1644802098.181,-100.586,-22.461,-52.734,-71.289,0.000,0
1644802098.185,-128.418,-22.949,-66.406,-76.172,0.000,0
1644802098.189,-128.906,-21.484,-71.289,-83.496,0.000,0
1644802098.193,-95.703,-20.996,-64.941,-90.820,0.000,0
1644802098.197,-82.031,-25.391,-63.965,-75.684,0.000,0
1644802098.201,-96.680,-23.438,-70.801,-57.617,0.000,0
1644802098.205,-118.652,-28.320,-77.148,-64.453,0.000,0
1644802098.209,-130.371,-32.227,-76.660,-91.309,0.000,0
1644802098.212,-110.840,-26.855,-69.336,-102.539,0.000,0
1644802098.216,-86.914,-19.043,-65.430,-86.426,0.000,0
1644802098.220,-85.938,-13.672,-65.918,-94.238,0.000,0
1644802098.229,-113.281,-14.648,-67.383,-94.727,0.000,0
1644802098.233,-143.066,-16.113,-69.824,-88.379,0.000,0
1644802098.237,-126.465,-14.160,-68.359,-100.098,0.000,0
1644802098.241,-90.820,-11.230,-69.824,-96.680,0.000,0
1644802098.245,-93.750,-14.160,-67.871,-84.961,0.000,0
1644802098.249,-118.164,-18.555,-58.594,-76.172,0.000,0
1644802098.253,-128.418,-26.367,-71.777,-80.566,0.000,0
1644802098.257,-108.887,-24.902,-73.242,-86.426,0.000,0
1644802098.261,-102.539,-14.160,-57.129,-95.215,0.000,0
1644802098.265,-102.051,-6.348,-63.965,-102.539,0.000,0
1644802098.269,-117.188,-11.230,-78.613,-96.680,0.000,0
1644802098.273,-146.484,-17.090,-76.660,-102.051,0.000,0
1644802098.285,-124.512,-16.602,-79.590,-104.492,0.000,0
1644802098.289,-106.445,-16.602,-80.566,-96.680,0.000,0
1644802098.293,-101.562,-20.996,-71.289,-82.031,0.000,0
1644802098.297,-112.305,-21.973,-68.359,-76.660,0.000,0
1644802098.301,-145.508,-22.949,-70.801,-98.145,0.000,0
1644802098.306,-137.695,-23.438,-72.266,-118.164,0.000,0
1644802098.310,-105.957,-18.555,-71.289,-97.168,0.000,0
1644802098.314,-91.797,-14.160,-70.312,-87.891,0.000,0
1644802098.318,-102.539,-8.789,-65.430,-80.078,0.000,0
1644802098.322,-132.812,-11.230,-64.453,-72.754,0.000,0
1644802098.326,-140.625,-12.695,-64.453,-90.820,0.000,0
1644802098.331,-114.258,-9.277,-62.988,-90.820,0.000,0
1644802098.356,-99.121,-5.371,-62.988,-78.125,0.000,0
1644802098.360,-101.074,-12.695,-64.941,-65.430,0.000,0
1644802098.365,-120.117,-15.137,-61.523,-49.805,0.000,0
1644802098.369,-125.000,-5.371,-64.941,-81.543,0.000,0
1644802098.374,-96.680,-10.742,-76.172,-109.863,0.000,0
1644802098.378,-95.215,-10.254,-75.195,-90.332,0.000,0
1644802098.383,-104.980,-11.230,-75.684,-72.754,0.000,0
1644802098.387,-137.207,-18.555,-76.172,-72.266,0.000,0
1644802098.392,-146.973,-20.020,-72.754,-112.793,0.000,0
1644802098.396,-104.492,-16.602,-65.430,-129.395,0.000,0
1644802098.401,-86.426,-7.812,-62.500,-91.797,0.000,0
1644802098.405,-96.191,-7.324,-70.312,-83.008,0.000,0
1644802098.443,-116.699,-17.578,-76.172,-97.168,0.000,0
1644802098.448,-125.977,-19.531,-80.078,-103.027,0.000,0
1644802098.453,-101.562,-12.695,-76.172,-108.398,0.000,0
1644802098.458,-90.820,-14.648,-75.195,-103.027,0.000,0
1644802098.463,-106.445,-15.137,-73.730,-84.961,0.000,0
1644802098.468,-113.281,-18.066,-76.172,-76.172,0.000,0
1644802098.473,-130.371,-26.367,-82.520,-97.168,0.000,0
1644802098.478,-127.930,-26.855,-83.496,-119.141,0.000,0
1644802098.483,-98.633,-25.879,-77.148,-109.863,0.000,0
1644802098.488,-93.262,-22.949,-70.801,-87.402,0.000,0
1644802098.493,-123.047,-13.184,-68.848,-88.867,0.000,0
1644802098.498,-127.930,-12.695,-63.477,-101.562,0.000,0
1644802098.524,-104.004,-14.160,-62.012,-115.723,0.000,0
1644802098.529,-88.867,-11.719,-64.941,-107.910,0.000,0
1644802098.534,-89.355,-12.207,-71.289,-91.797,0.000,0
1644802098.540,-102.051,-12.207,-77.148,-88.867,0.000,0
1644802098.545,-118.164,-20.020,-75.684,-97.168,0.000,0
1644802098.550,-105.957,-18.066,-74.219,-115.723,0.000,0
1644802098.555,-88.867,-14.648,-73.730,-120.117,0.000,0
1644802098.560,-92.285,-15.625,-71.777,-98.145,0.000,0
1644802098.566,-101.562,-5.859,-69.824,-78.125,0.000,0
1644802098.571,-116.699,-9.766,-66.406,-86.426,0.000,0
1644802098.576,-107.422,-16.602,-71.777,-104.004,0.000,0
1644802098.581,-74.219,-5.371,-73.242,-98.145,0.000,0
1644802098.598,-77.148,-7.324,-68.848,-81.543,0.000,0
1644802098.603,-104.492,-16.113,-70.801,-71.777,0.000,0
1644802098.609,-121.094,-17.578,-72.754,-74.219,0.000,0
1644802098.614,-115.723,-20.020,-68.359,-95.215,0.000,0
1644802098.619,-83.984,-18.555,-68.848,-89.844,0.000,0
1644802098.625,-78.125,-17.090,-66.895,-84.961,0.000,0
1644802098.630,-85.449,-15.625,-62.012,-86.426,0.000,0
1644802098.635,-112.793,-20.020,-72.754,-89.355,0.000,0
1644802098.641,-123.047,-23.438,-82.520,-120.117,0.000,0
1644802098.646,-87.891,-18.555,-74.707,-125.000,0.000,0
1644802098.651,-82.031,-16.602,-66.406,-98.633,0.000,0
1644802098.657,-93.262,-20.020,-64.453,-73.730,0.000,0
1644802098.667,-112.305,-21.973,-69.824,-76.660,0.000,0
1644802098.672,-116.699,-16.602,-72.266,-106.445,0.000,0
1644802098.678,-99.121,-10.742,-61.523,-104.980,0.000,0
1644802098.683,-94.238,-7.812,-55.176,-86.426,0.000,0
1644802098.689,-104.004,-13.184,-55.664,-85.938,0.000,0
1644802098.694,-124.023,-23.926,-57.129,-89.355,0.000,0
1644802098.699,-133.301,-23.438,-59.082,-91.309,0.000,0
1644802098.705,-110.352,-20.020,-60.059,-107.422,0.000,0
1644802098.710,-97.168,-17.090,-59.570,-122.559,0.000,0
1644802098.716,-107.422,-19.043,-61.523,-101.562,0.000,0
1644802098.721,-123.535,-22.949,-63.965,-91.797,0.000,0
1644802098.726,-122.070,-23.926,-64.941,-96.680,0.000,0
1644802098.734,-100.098,-18.555,-64.941,-103.027,0.000,0
1644802098.739,-96.680,-10.742,-60.547,-93.262,0.000,0
1644802098.744,-97.656,-14.160,-53.223,-80.566,0.000,0
1644802098.750,-115.723,-20.508,-64.453,-73.242,0.000,0
1644802098.755,-132.324,-25.879,-74.219,-83.496,0.000,0
1644802098.761,-108.398,-21.484,-62.988,-107.422,0.000,0
1644802098.766,-81.543,-16.113,-60.547,-94.238,0.000,0
1644802098.772,-82.520,-15.137,-63.477,-72.266,0.000,0
1644802098.777,-102.051,-14.648,-69.336,-67.871,0.000,0
1644802098.782,-133.301,-20.020,-73.242,-83.984,0.000,0
1644802098.788,-130.371,-20.020,-67.871,-86.426,0.000,0
1644802098.793,-96.680,-22.461,-64.453,-92.773,0.000,0
1644802098.794,-95.703,-24.902,-66.895,-98.145,0.000,0
1644802098.799,-118.164,-21.973,-66.895,-83.984,0.000,0
1644802098.805,-139.648,-26.367,-62.988,-69.824,0.000,0
1644802098.810,-124.023,-25.879,-62.012,-83.984,0.000,0
1644802098.815,-94.238,-15.625,-60.059,-92.285,0.000,0
1644802098.821,-93.750,-15.625,-50.781,-84.961,0.000,0
1644802098.826,-90.820,-27.832,-53.223,-75.195,0.000,0
1644802098.832,-120.605,-31.250,-67.383,-81.055,0.000,0
1644802098.837,-140.625,-25.879,-69.824,-108.887,0.000,0
1644802098.842,-109.375,-26.855,-56.152,-109.375,0.000,0
1644802098.848,-95.215,-25.879,-46.875,-90.332,0.000,0
1644802098.853,-111.816,-21.484,-51.270,-83.984,0.000,0
1644802098.849,-130.859,-20.020,-52.734,-81.543,0.000,0
1644802098.854,-126.953,-22.461,-49.316,-97.168,0.000,0
1644802098.859,-111.328,-22.461,-51.758,-110.352,0.000,0
1644802098.865,-100.098,-17.090,-53.223,-82.520,0.000,0
1644802098.870,-104.492,-14.160,-52.734,-80.566,0.000,0
1644802098.875,-129.883,-22.949,-56.641,-94.238,0.000,0
1644802098.881,-126.953,-26.855,-58.594,-95.703,0.000,0
1644802098.886,-101.562,-21.973,-50.293,-97.168,0.000,0
1644802098.891,-97.168,-19.043,-39.551,-104.980,0.000,0
1644802098.897,-106.934,-20.996,-48.340,-98.633,0.000,0
1644802098.902,-128.418,-25.879,-58.105,-84.473,0.000,0
1644802098.907,-135.254,-26.367,-54.688,-107.422,0.000,0
1644802098.899,-123.047,-27.832,-50.293,-133.789,0.000,0
1644802098.904,-106.445,-29.785,-53.711,-101.562,0.000,0
1644802098.909,-98.633,-22.461,-54.688,-87.402,0.000,0
1644802098.915,-127.930,-19.531,-56.152,-95.703,0.000,0
1644802098.920,-140.137,-26.367,-61.523,-106.934,0.000,0
1644802098.925,-113.770,-26.367,-59.082,-118.652,0.000,0
1644802098.930,-94.727,-21.973,-54.199,-104.980,0.000,0
1644802098.935,-101.074,-24.902,-57.617,-93.262,0.000,0
1644802098.941,-125.488,-22.949,-60.059,-88.867,0.000,0
1644802098.946,-145.996,-16.113,-58.105,-110.840,0.000,0
1644802098.951,-126.465,-21.973,-56.641,-104.980,0.000,0
1644802098.956,-103.027,-20.996,-54.199,-101.562,0.000,0
1644802098.945,-104.492,-15.625,-53.711,-111.816,0.000,0
1644802098.950,-123.047,-20.020,-57.617,-97.168,0.000,0
1644802098.955,-138.184,-23.926,-63.477,-110.840,0.000,0
1644802098.960,-116.211,-20.996,-57.129,-122.559,0.000,0
1644802098.965,-93.750,-17.090,-47.363,-103.516,0.000,0
1644802098.970,-98.633,-23.438,-41.992,-81.543,0.000,0
1644802098.975,-115.723,-27.344,-42.969,-76.172,0.000,0
1644802098.980,-132.812,-25.879,-40.527,-88.867,0.000,0
1644802098.986,-131.836,-27.344,-33.203,-114.746,0.000,0
1644802098.991,-107.422,-22.461,-34.668,-108.398,0.000,0
1644802098.996,-96.191,-19.531,-44.434,-93.750,0.000,0
1644802099.001,-111.816,-17.090,-44.922,-104.004,0.000,0
1644802098.987,-126.953,-18.555,-42.480,-94.727,0.000,0
1644802098.992,-119.141,-22.949,-35.645,-92.773,0.000,0
1644802098.997,-93.750,-19.531,-30.762,-113.770,0.000,0
1644802099.002,-84.473,-18.066,-33.203,-89.355,0.000,0
1644802099.007,-101.074,-21.973,-40.527,-73.730,0.000,0
1644802099.012,-131.348,-28.809,-48.828,-86.426,0.000,0
1644802099.017,-136.719,-30.762,-44.434,-115.723,0.000,0
1644802099.022,-112.305,-20.508,-36.621,-120.605,0.000,0
1644802099.027,-101.562,-15.625,-34.180,-81.055,0.000,0
1644802099.032,-107.422,-18.066,-47.852,-62.012,0.000,0
1644802099.037,-129.395,-13.672,-51.270,-77.148,0.000,0
1644802099.042,-126.953,-15.137,-43.945,-102.051,0.000,0
1644802099.027,-96.191,-16.113,-43.457,-106.934,0.000,0
1644802099.032,-83.008,-13.672,-43.457,-93.750,0.000,0
1644802099.037,-83.008,-14.648,-38.574,-83.008,0.000,0
1644802099.042,-105.469,-15.625,-38.086,-82.031,0.000,0
1644802099.047,-132.812,-24.902,-42.480,-98.145,0.000,0
1644802099.052,-117.676,-21.484,-43.457,-100.586,0.000,0
1644802099.056,-106.445,-6.836,-43.945,-98.145,0.000,0
1644802099.061,-116.699,-16.113,-41.992,-98.633,0.000,1
1644802099.066,-139.160,-25.879,-45.898,-89.355,0.000,0
1644802099.071,-147.949,-20.020,-46.875,-103.516,0.000,0
1644802099.076,-120.605,-11.719,-44.922,-132.324,0.000,0
1644802099.081,-87.402,-15.625,-47.852,-100.586,0.000,0
1644802099.065,-77.637,-19.043,-47.852,-68.848,0.000,0
1644802099.069,-113.281,-20.020,-51.270,-84.961,0.000,0
1644802099.074,-136.230,-24.902,-57.617,-108.398,0.000,0
1644802099.079,-109.375,-22.461,-54.688,-111.328,0.000,0
1644802099.084,-66.895,-19.043,-46.387,-82.520,0.000,0
1644802099.089,-72.754,-21.484,-49.316,-68.848,0.000,0
1644802099.093,-116.699,-25.879,-53.223,-87.402,0.000,0
1644802099.098,-136.719,-34.180,-51.758,-101.562,0.000,0
1644802099.103,-117.676,-35.156,-53.223,-100.098,0.000,0
1644802099.108,-95.215,-23.926,-46.875,-108.887,0.000,0
1644802099.113,-106.445,-21.484,-45.410,-106.934,0.000,0
1644802099.117,-122.070,-28.320,-51.758,-83.984,0.000,0
1644802099.100,-130.371,-26.855,-50.293,-83.008,0.000,0
1644802099.104,-123.535,-13.672,-47.852,-107.422,0.000,0
1644802099.109,-96.680,-7.324,-48.340,-109.375,0.000,0
1644802099.114,-86.426,-15.137,-48.828,-86.914,0.000,0
1644802099.118,-106.445,-19.531,-54.199,-79.590,0.000,0
1644802099.123,-138.672,-19.043,-58.105,-101.562,0.000,0
1644802099.128,-128.906,-21.484,-56.152,-116.699,0.000,0
1644802099.132,-94.238,-17.578,-49.316,-103.027,0.000,0
1644802099.137,-101.562,-12.207,-56.152,-98.145,0.000,0
1644802099.142,-130.371,-9.766,-63.965,-112.305,0.000,0
1644802099.147,-137.207,-18.555,-64.453,-100.098,0.000,0
1644802099.151,-120.117,-22.949,-62.500,-101.074,0.000,0
1644802099.132,-88.867,-13.184,-54.688,-117.676,0.000,0
1644802099.137,-72.266,-10.742,-50.781,-91.309,0.000,0
1644802099.141,-105.957,-19.531,-60.059,-70.312,0.000,0
1644802099.146,-131.348,-24.902,-64.453,-83.984,0.000,0
1644802099.151,-125.488,-18.066,-61.523,-107.422,0.000,0
1644802099.155,-106.934,-17.578,-59.082,-107.910,0.000,0
1644802099.160,-80.078,-20.020,-54.199,-85.938,0.000,0
1644802099.164,-91.797,-20.020,-51.758,-80.078,0.000,0
1644802099.169,-139.160,-22.461,-55.664,-85.938,0.000,0
1644802099.174,-144.531,-20.996,-62.988,-109.863,0.000,0
1644802099.178,-107.910,-25.391,-59.570,-120.117,0.000,0
1644802099.183,-88.867,-23.438,-55.176,-104.004,0.000,0
1644802099.165,-94.727,-9.277,-49.805,-94.238,0.000,0
1644802099.170,-121.094,-13.184,-46.387,-85.938,0.000,0
1644802099.174,-136.719,-29.785,-52.246,-83.496,0.000,0
1644802099.179,-108.398,-28.809,-56.641,-101.562,0.000,0
1644802099.183,-83.984,-17.578,-47.363,-104.492,0.000,0
1644802099.188,-91.797,-13.184,-45.410,-87.891,0.000,0
1644802099.192,-120.117,-20.508,-54.688,-84.961,0.000,0
1644802099.197,-146.973,-27.344,-55.176,-99.121,0.000,0
1644802099.202,-135.254,-20.996,-54.199,-118.652,0.000,0
1644802099.206,-90.820,-20.996,-53.711,-101.074,0.000,0
1644802099.211,-86.426,-22.949,-48.340,-79.102,0.000,0
1644802099.215,-121.582,-17.578,-38.086,-79.102,0.000,0
1644802099.201,-145.996,-21.973,-39.062,-96.680,0.000,0
1644802099.205,-130.371,-21.973,-55.664,-122.070,0.000,0
1644802099.210,-97.168,-15.137,-54.688,-118.652,0.000,0
1644802099.214,-101.562,-13.672,-41.992,-99.609,0.000,0
1644802099.219,-127.930,-19.531,-41.992,-104.492,0.000,0
1644802099.223,-146.973,-29.297,-55.176,-123.535,0.000,0
1644802099.227,-140.137,-27.344,-54.688,-140.625,0.000,0
1644802099.232,-114.746,-21.973,-44.434,-127.441,0.000,0
1644802099.236,-111.328,-19.043,-44.434,-110.352,0.000,0
1644802099.241,-118.164,-19.043,-47.363,-91.309,0.000,0
1644802099.245,-130.859,-20.020,-46.387,-92.285,0.000,0
1644802099.250,-136.230,-18.555,-45.898,-114.746,0.000,0
1644802099.237,-112.793,-20.508,-48.340,-108.887,0.000,0
1644802099.241,-95.215,-18.555,-45.410,-94.727,0.000,0
1644802099.246,-110.840,-16.113,-49.316,-96.191,0.000,0
1644802099.250,-145.996,-19.531,-54.199,-97.168,0.000,0
1644802099.254,-150.391,-20.508,-49.805,-104.492,0.000,0
1644802099.259,-116.211,-16.113,-43.945,-116.699,0.000,0
1644802099.263,-95.703,-17.090,-48.828,-109.863,0.000,0
1644802099.267,-99.609,-14.160,-54.199,-95.215,0.000,0
1644802099.272,-127.930,-15.137,-50.781,-102.051,0.000,0
1644802099.276,-135.742,-24.902,-56.641,-109.375,0.000,0
1644802099.281,-122.559,-20.020,-56.152,-108.398,0.000,0
1644802099.285,-97.656,-12.207,-49.316,-104.004,0.000,0
1644802099.273,-106.445,-13.672,-54.688,-95.215,0.000,0
1644802099.278,-152.832,-17.578,-60.059,-91.797,0.000,0
1644802099.282,-153.809,-20.508,-58.105,-116.211,0.000,0
1644802099.286,-122.559,-13.672,-48.340,-123.535,0.000,0
1644802099.291,-102.539,-13.184,-43.457,-100.586,0.000,0
1644802099.295,-109.863,-21.484,-49.316,-88.379,0.000,0
1644802099.299,-134.277,-19.043,-50.781,-81.055,0.000,0
1644802099.304,-145.996,-15.137,-55.176,-113.770,0.000,0
1644802099.308,-120.117,-19.043,-60.059,-126.465,0.000,0
1644802099.312,-101.074,-15.625,-52.246,-101.562,0.000,0
1644802099.317,-108.398,-9.766,-47.852,-92.773,0.000,0
1644802099.321,-128.906,-20.996,-54.199,-79.590,0.000,0
1644802099.312,-126.953,-27.832,-62.500,-88.867,0.000,0
1644802099.316,-118.164,-23.438,-58.594,-118.164,0.000,0
1644802099.320,-102.539,-18.555,-46.875,-106.445,0.000,0
1644802099.325,-85.449,-16.113,-45.898,-85.449,0.000,0
1644802099.329,-113.281,-20.508,-54.688,-87.402,0.000,0
1644802099.333,-129.883,-19.531,-64.453,-99.609,0.000,0
1644802099.337,-124.512,-14.160,-64.453,-123.047,0.000,0
1644802099.342,-112.793,-15.137,-56.641,-118.652,0.000,0
1644802099.346,-102.539,-19.531,-55.664,-89.844,0.000,0
1644802099.350,-120.117,-20.996,-58.105,-93.750,0.000,0
1644802099.354,-150.879,-25.879,-59.570,-117.676,0.000,0
1644802099.359,-132.812,-24.414,-61.523,-129.395,0.000,0
1644802099.351,-106.934,-15.137,-58.105,-128.906,0.000,0
1644802099.355,-102.051,-11.719,-50.293,-105.957,0.000,0
1644802099.359,-105.469,-19.531,-49.316,-91.309,0.000,0
1644802099.363,-136.719,-27.832,-53.711,-109.375,0.000,0
1644802099.367,-145.508,-28.809,-54.199,-130.859,0.000,0
1644802099.372,-122.070,-25.879,-48.340,-124.512,0.000,0
1644802099.376,-99.121,-20.996,-47.363,-94.727,0.000,0
1644802099.380,-102.539,-21.973,-51.270,-81.543,0.000,0
1644802099.384,-125.977,-20.508,-51.270,-87.891,0.000,0
1644802099.389,-119.629,-12.695,-47.363,-116.699,0.000,0
1644802099.393,-95.215,-11.719,-46.387,-126.953,0.000,0
1644802099.397,-81.055,-15.137,-45.898,-94.238,0.000,0
1644802099.389,-99.121,-11.719,-42.969,-76.172,0.000,0
1644802099.393,-125.488,-9.277,-47.852,-94.238,0.000,0
1644802099.397,-127.930,-14.160,-47.852,-106.445,0.000,0
1644802099.401,-108.398,-14.648,-43.945,-108.887,0.000,0
1644802099.405,-83.984,-15.625,-46.875,-105.957,0.000,0
1644802099.409,-82.520,-11.230,-51.270,-82.520,0.000,0
1644802099.414,-102.539,-15.137,-56.152,-76.660,0.000,0
1644802099.418,-112.305,-21.973,-56.641,-98.633,0.000,0
1644802099.422,-100.098,-15.625,-52.246,-118.164,0.000,0
1644802099.426,-83.496,-7.812,-43.945,-107.422,0.000,0
1644802099.430,-78.125,-11.230,-39.551,-78.125,0.000,0
1644802099.435,-95.703,-17.578,-45.898,-66.895,0.000,0
1644802099.427,-121.582,-10.254,-50.293,-103.027,0.000,0
1644802099.431,-106.445,-6.348,-49.316,-115.723,0.000,0
1644802099.435,-84.473,-10.254,-49.805,-96.680,0.000,0
1644802099.439,-84.961,-13.184,-51.758,-91.309,0.000,0
1644802099.444,-107.910,-20.508,-55.176,-88.867,0.000,0
1644802099.448,-131.836,-22.461,-52.246,-104.004,0.000,0
1644802099.452,-111.816,-20.508,-54.199,-116.699,0.000,0
1644802099.456,-97.656,-18.555,-51.270,-101.074,0.000,0
1644802099.460,-101.074,-6.348,-42.480,-92.773,0.000,0
1644802099.464,-109.863,-11.230,-46.387,-83.008,0.000,0
1644802099.468,-132.812,-25.879,-50.293,-92.773,0.000,0
1644802099.473,-127.441,-29.785,-45.410,-125.000,0.000,0
1644802099.466,-104.492,-25.879,-39.062,-113.281,0.000,0
1644802099.470,-103.027,-20.508,-41.016,-91.797,0.000,0
1644802099.474,-119.629,-20.508,-44.922,-87.402,0.000,0
1644802099.478,-135.254,-23.926,-41.992,-99.609,0.000,0
1644802099.482,-125.488,-17.090,-40.039,-113.281,0.000,0
1644802099.486,-102.539,-7.812,-30.762,-99.609,0.000,0
1644802099.490,-91.309,-16.602,-30.762,-64.453,0.000,0
1644802099.494,-107.422,-22.949,-41.504,-64.453,0.000,0
1644802099.498,-134.277,-23.438,-47.852,-101.562,0.000,0
1644802099.503,-131.836,-28.809,-52.734,-113.770,0.000,0
1644802099.507,-104.004,-24.414,-50.293,-112.305,0.000,0
1644802099.511,-88.867,-19.043,-46.875,-108.887,0.000,0
1644802099.508,-109.863,-22.461,-47.852,-90.332,0.000,0
1644802099.512,-126.953,-22.949,-43.945,-94.727,0.000,0
1644802099.516,-118.164,-18.555,-39.551,-116.211,0.000,0
1644802099.520,-101.562,-15.137,-46.875,-118.164,0.000,0
1644802099.524,-90.332,-18.066,-48.828,-101.074,0.000,0
1644802099.528,-91.797,-21.973,-41.504,-79.590,0.000,0
1644802099.533,-118.164,-21.973,-38.574,-81.543,0.000,0
1644802099.537,-132.324,-19.531,-41.504,-97.656,0.000,0
1644802099.541,-102.051,-12.695,-42.969,-106.445,0.000,0
1644802099.545,-83.984,-14.160,-38.086,-82.031,0.000,0
1644802099.549,-89.355,-15.137,-37.109,-72.754,0.000,0
1644802099.553,-116.211,-16.113,-41.992,-83.984,0.000,0
1644802099.548,-139.160,-22.949,-40.527,-93.262,0.000,0
1644802099.552,-119.141,-22.461,-37.109,-102.051,0.000,0
1644802099.557,-100.098,-20.020,-36.621,-89.355,0.000,0
1644802099.561,-110.840,-24.902,-41.016,-85.449,0.000,0
1644802099.565,-127.930,-28.809,-49.805,-92.285,0.000,0
1644802099.569,-141.113,-28.809,-45.898,-105.957,0.000,0
1644802099.573,-115.723,-22.949,-41.504,-120.605,0.000,0
1644802099.577,-84.961,-19.531,-47.363,-111.816,0.000,0
1644802099.581,-86.426,-28.320,-50.781,-86.426,0.000,0
1644802099.585,-124.512,-33.203,-53.711,-85.938,0.000,0
1644802099.589,-160.156,-33.203,-51.270,-117.676,0.000,0
1644802099.593,-133.301,-31.250,-42.480,-130.859,0.000,0
1644802099.589,-88.867,-26.855,-45.410,-101.074,0.000,0
1644802099.593,-74.219,-23.438,-44.922,-72.266,0.000,0
1644802099.597,-107.422,-24.414,-38.574,-81.543,0.000,0
1644802099.601,-149.902,-27.832,-42.480,-113.770,0.000,0
1644802099.605,-130.859,-33.691,-39.551,-116.211,0.000,0
1644802099.609,-85.449,-34.180,-31.250,-87.891,0.000,0
1644802099.613,-72.754,-21.973,-32.715,-72.266,0.000,0
1644802099.617,-116.211,-18.066,-38.086,-75.195,0.000,0
1644802099.621,-147.949,-27.832,-44.922,-89.844,0.000,0
1644802099.625,-120.117,-23.438,-45.410,-113.770,0.000,0
1644802099.629,-96.680,-11.719,-40.527,-128.418,0.000,0
1644802099.633,-91.797,-11.719,-46.875,-102.539,0.000,0
1644802099.630,-97.168,-13.184,-53.711,-90.332,0.000,0
1644802099.634,-130.859,-17.578,-56.641,-100.098,0.000,0
1644802099.638,-124.023,-13.672,-49.805,-118.164,0.000,0
1644802099.642,-78.125,-7.324,-33.691,-114.746,0.000,0
1644802099.646,-83.496,-15.137,-39.062,-95.215,0.000,0
1644802099.650,-118.164,-20.508,-48.340,-97.168,0.000,0
1644802099.654,-137.695,-21.973,-45.898,-100.098,0.000,0
1644802099.658,-134.766,-20.996,-46.387,-105.957,0.000,0
1644802099.662,-115.234,-15.137,-44.434,-97.168,0.000,0
1644802099.666,-111.328,-15.137,-43.945,-81.543,0.000,0
1644802099.670,-116.211,-17.090,-45.410,-77.148,0.000,0
1644802099.674,-123.535,-18.066,-44.434,-76.172,0.000,0
1644802099.674,-134.766,-12.207,-44.922,-98.145,0.000,0
1644802099.678,-116.211,-10.254,-40.039,-110.352,0.000,0
1644802099.682,-99.609,-15.137,-34.180,-87.891,0.000,0
1644802099.686,-114.258,-19.531,-41.504,-71.289,0.000,0
1644802099.690,-140.137,-22.461,-45.410,-76.172,0.000,0
1644802099.694,-148.438,-20.996,-43.945,-89.844,0.000,0
1644802099.698,-120.117,-13.672,-39.551,-101.562,0.000,0
1644802099.702,-105.469,-13.184,-39.551,-87.891,0.000,0
1644802099.706,-105.469,-12.695,-45.898,-74.707,0.000,0
1644802099.710,-131.348,-11.230,-42.480,-84.961,0.000,0
1644802099.714,-141.113,-15.137,-39.062,-96.680,0.000,0
1644802099.718,-101.074,-14.648,-36.133,-108.398,0.000,0
1644802099.716,-87.402,-9.766,-24.902,-99.121,0.000,0
1644802099.720,-101.074,-10.254,-18.555,-74.219,0.000,0
1644802099.724,-121.094,-18.066,-26.367,-72.754,0.000,0
1644802099.728,-132.324,-17.090,-35.156,-104.492,0.000,0
1644802099.732,-123.535,-8.301,-32.715,-117.676,0.000,0
1644802099.736,-90.820,-4.395,-29.297,-91.797,0.000,0
1644802099.740,-85.449,-8.789,-33.691,-79.102,0.000,0
1644802099.744,-113.770,-12.207,-34.668,-82.520,0.000,0
1644802099.748,-133.789,-15.137,-34.668,-91.309,0.000,0
1644802099.752,-126.953,-19.043,-38.574,-115.234,0.000,0
1644802099.756,-110.840,-23.438,-39.062,-109.863,0.000,0
1644802099.760,-103.027,-28.320,-30.762,-82.031,0.000,0
1644802099.758,-123.535,-24.414,-29.785,-89.844,0.000,0
1644802099.762,-153.809,-24.902,-37.598,-110.840,0.000,0
1644802099.766,-135.254,-23.926,-35.156,-109.863,0.000,0
1644802099.770,-94.727,-9.766,-30.273,-95.703,0.000,0
1644802099.774,-80.566,-0.488,-29.785,-86.426,0.000,0
1644802099.778,-105.957,-4.395,-36.133,-92.285,0.000,0
1644802099.782,-131.348,-12.695,-44.434,-88.867,0.000,0
1644802099.786,-123.047,-12.695,-44.434,-97.168,0.000,0
1644802099.789,-98.145,-9.277,-34.668,-99.609,0.000,0
1644802099.793,-85.449,-11.230,-31.250,-85.938,0.000,0
1644802099.797,-98.633,-21.484,-31.738,-80.566,0.000,0
1644802099.801,-123.535,-24.414,-31.738,-88.379,0.000,0
1644802099.800,-130.371,-10.742,-35.156,-113.281,0.000,0
1644802099.804,-100.586,-1.465,-31.738,-108.398,0.000,0
1644802099.808,-83.496,-9.277,-26.855,-85.449,0.000,0
1644802099.812,-97.168,-16.602,-27.344,-94.238,0.000,0
1644802099.816,-119.629,-15.137,-29.297,-101.074,0.000,0
1644802099.820,-129.395,-17.578,-29.297,-101.074,0.000,0
1644802099.824,-110.840,-18.066,-27.832,-93.262,0.000,0
1644802099.828,-90.820,-9.277,-26.855,-83.496,0.000,0
1644802099.832,-96.680,-6.836,-24.902,-98.633,0.000,1
1644802099.836,-127.441,-7.324,-26.367,-88.867,0.000,0
1644802099.840,-136.230,-13.184,-29.297,-97.168,0.000,0
1644802099.844,-107.910,-14.160,-27.832,-106.934,0.000,0
1644802099.843,-85.938,-10.254,-26.855,-84.473,0.000,0
1644802099.847,-88.867,-18.066,-25.879,-69.336,0.000,0
1644802099.851,-116.211,-23.926,-32.715,-79.590,0.000,0
1644802099.855,-138.672,-22.949,-42.480,-105.469,0.000,0
1644802099.859,-111.816,-12.695,-35.156,-106.445,0.000,0
1644802099.863,-83.496,-6.348,-28.809,-85.449,0.000,0
1644802099.867,-94.727,-11.230,-26.367,-85.449,0.000,0
1644802099.870,-112.793,-10.742,-27.832,-82.031,0.000,0
1644802099.874,-137.207,-12.207,-29.297,-87.891,0.000,0
1644802099.878,-129.883,-23.438,-23.926,-101.074,0.000,0
1644802099.882,-99.609,-18.066,-27.832,-86.914,0.000,0
1644802099.886,-101.562,-7.324,-36.621,-91.309,0.000,0
1644802099.886,-115.234,-14.160,-35.156,-90.820,0.000,0
1644802099.890,-127.930,-13.184,-27.344,-84.473,0.000,0
1644802099.894,-128.906,-13.184,-29.785,-108.398,0.000,0
1644802099.898,-104.492,-13.672,-25.879,-106.934,0.000,0
1644802099.902,-90.332,-12.207,-20.508,-89.355,0.000,0
1644802099.906,-104.980,-14.160,-30.273,-82.031,0.000,0
1644802099.910,-119.141,-18.066,-35.156,-83.008,0.000,0
1644802099.914,-120.605,-17.090,-28.320,-104.980,0.000,0
1644802099.918,-102.051,-17.090,-24.902,-101.562,0.000,0
1644802099.922,-85.449,-16.602,-28.809,-93.750,0.000,0
1644802099.926,-110.352,-17.578,-31.250,-102.051,0.000,0
1644802099.930,-138.672,-24.902,-36.621,-103.516,0.000,0
1644802099.929,-126.465,-23.926,-38.086,-113.770,0.000,0
1644802099.933,-104.980,-16.113,-35.645,-110.352,0.000,0
1644802099.937,-103.027,-9.766,-33.691,-97.168,0.000,0
1644802099.941,-114.746,-11.230,-33.691,-88.867,0.000,0
1644802099.945,-136.230,-17.578,-36.133,-101.074,0.000,0
1644802099.949,-133.789,-22.949,-32.715,-106.934,0.000,0
1644802099.953,-103.027,-18.555,-28.809,-99.121,0.000,0
1644802099.957,-84.961,-14.160,-25.391,-99.121,0.000,0
1644802099.961,-94.727,-18.066,-29.785,-92.285,0.000,0
1644802099.965,-125.000,-18.555,-40.039,-92.773,0.000,0
1644802099.969,-128.906,-20.020,-46.875,-110.840,0.000,0
1644802099.973,-94.238,-19.043,-40.527,-97.656,0.000,0
1644802099.973,-84.473,-16.602,-33.203,-64.941,0.000,0
1644802099.977,-105.469,-17.090,-36.133,-61.035,0.000,0
1644802099.981,-125.488,-16.602,-36.621,-75.195,0.000,0
1644802099.985,-123.535,-16.602,-38.574,-99.121,0.000,0
1644802099.989,-101.562,-20.508,-38.574,-102.539,0.000,0
1644802099.993,-83.496,-17.578,-30.273,-94.727,0.000,0
1644802099.997,-99.121,-10.254,-28.320,-96.680,0.000,0
1644802100.001,-132.812,-17.090,-48.340,-91.309,0.000,0
1644802100.004,-132.324,-21.973,-61.523,-87.891,0.000,0
1644802100.008,-113.770,-14.648,-42.969,-101.562,0.000,0
1644802100.012,-98.145,-10.742,-31.250,-90.332,0.000,0
1644802100.016,-88.379,-12.207,-32.715,-73.242,0.000,0
1644802100.016,-116.699,-11.230,-31.250,-80.566,0.000,0
1644802100.020,-136.719,-8.789,-33.691,-97.656,0.000,0
1644802100.024,-117.188,-8.789,-36.133,-100.098,0.000,0
1644802100.028,-91.797,-6.836,-31.738,-71.777,0.000,0
1644802100.032,-90.820,-2.930,-33.691,-61.035,0.000,0
1644802100.036,-119.629,-7.324,-40.039,-79.590,0.000,0
1644802100.039,-133.301,-15.137,-46.875,-101.562,0.000,0
1644802100.043,-115.234,-16.113,-46.875,-123.535,0.000,0
1644802100.047,-107.422,-12.207,-42.480,-107.422,0.000,0
1644802100.051,-101.074,-11.230,-45.410,-91.309,0.000,0
1644802100.055,-125.977,-12.207,-49.316,-96.680,0.000,0
1644802100.059,-144.531,-18.066,-51.270,-94.238,0.000,0
1644802100.059,-131.348,-19.531,-49.805,-114.258,0.000,0
1644802100.063,-121.582,-10.254,-40.527,-115.234,0.000,0
1644802100.067,-110.352,-4.883,-44.434,-95.215,0.000,0
1644802100.071,-115.234,-9.277,-50.293,-94.727,0.000,0
1644802100.075,-135.254,-20.996,-55.176,-100.098,0.000,0
1644802100.079,-130.859,-17.578,-58.105,-120.605,0.000,0
1644802100.082,-100.586,-9.277,-47.363,-110.352,0.000,0
1644802100.086,-85.938,-11.230,-44.922,-81.055,0.000,0
1644802100.090,-106.445,-12.695,-52.734,-92.285,0.000,0
1644802100.094,-127.441,-13.672,-54.688,-101.562,0.000,0
1644802100.098,-115.723,-14.160,-44.434,-98.145,0.000,0
1644802100.102,-105.469,-12.207,-43.945,-105.957,0.000,0
1644802100.103,-105.957,-11.719,-46.387,-87.891,0.000,0
1644802100.107,-120.605,-15.625,-47.363,-72.754,0.000,0
1644802100.111,-139.648,-25.391,-49.316,-92.773,0.000,0
1644802100.115,-125.000,-20.508,-45.410,-102.539,0.000,0
1644802100.119,-92.773,-14.160,-48.340,-98.633,0.000,0
1644802100.123,-84.961,-15.137,-51.758,-90.820,0.000,0
1644802100.126,-96.680,-15.625,-46.875,-78.613,0.000,0
1644802100.130,-118.652,-17.090,-44.434,-73.730,0.000,0
1644802100.134,-146.484,-17.090,-45.898,-104.004,0.000,0
1644802100.138,-113.770,-14.648,-49.805,-123.535,0.000,0
1644802100.142,-82.520,-17.090,-51.758,-90.332,0.000,0
1644802100.146,-107.910,-16.113,-45.410,-80.566,0.000,0
1644802100.146,-137.695,-16.602,-47.852,-102.539,0.000,0
1644802100.150,-147.949,-20.508,-55.176,-114.746,0.000,0
1644802100.154,-121.094,-12.207,-50.781,-113.770,0.000,0
1644802100.158,-102.539,-12.695,-50.293,-89.355,0.000,0
1644802100.162,-103.516,-14.160,-48.828,-77.148,0.000,0
1644802100.166,-115.723,-16.113,-50.781,-90.820,0.000,0
1644802100.170,-135.742,-19.043,-48.828,-111.328,0.000,0
1644802100.173,-121.094,-16.113,-40.527,-124.023,0.000,0
1644802100.177,-99.609,-16.113,-41.992,-118.164,0.000,0
1644802100.181,-95.703,-21.973,-44.434,-97.656,0.000,0
1644802100.185,-113.281,-28.809,-43.945,-83.984,0.000,0
1644802100.189,-144.043,-28.320,-46.875,-98.145,0.000,0
1644802100.190,-119.141,-16.113,-42.480,-101.562,0.000,0
1644802100.194,-78.125,-11.230,-31.738,-92.773,0.000,0
1644802100.198,-85.449,-13.184,-29.785,-90.332,0.000,0
1644802100.202,-116.699,-12.695,-34.180,-82.520,0.000,0
1644802100.206,-127.441,-13.184,-33.691,-77.148,0.000,0
1644802100.210,-116.699,-9.766,-27.344,-90.332,0.000,0
1644802100.214,-99.121,-9.277,-26.367,-91.797,0.000,0
1644802100.217,-98.145,-12.207,-41.992,-84.961,0.000,0
1644802100.221,-104.492,-15.137,-50.293,-80.566,0.000,0
1644802100.225,-115.234,-13.672,-49.316,-76.660,0.000,0
1644802100.229,-117.676,-7.324,-46.387,-105.957,0.000,0
1644802100.233,-97.656,-5.859,-47.852,-115.723,0.000,0
1644802100.234,-93.262,-5.371,-45.410,-80.566,0.000,0
1644802100.238,-110.840,-12.207,-40.527,-63.965,0.000,0
1644802100.242,-137.207,-19.043,-44.434,-79.102,0.000,0
1644802100.246,-125.977,-15.137,-38.086,-110.352,0.000,0
1644802100.250,-87.891,-13.672,-33.203,-95.215,0.000,0
1644802100.254,-77.637,-9.766,-40.039,-67.383,0.000,0
1644802100.258,-97.656,-2.930,-46.875,-78.613,0.000,0
1644802100.262,-131.348,-3.418,-52.734,-99.121,0.000,0
1644802100.265,-128.906,-7.812,-42.480,-105.469,0.000,0
1644802100.269,-90.820,-8.789,-29.785,-99.609,0.000,0
1644802100.273,-71.289,-1.953,-35.156,-91.797,0.000,0
1644802100.277,-87.891,-6.836,-35.645,-87.402,0.000,0
1644802100.279,-129.883,-22.949,-40.527,-98.145,0.000,0
1644802100.282,-134.277,-27.344,-48.340,-105.957,0.000,0
1644802100.286,-109.375,-20.508,-43.457,-113.281,0.000,0
1644802100.290,-97.656,-11.719,-35.156,-99.121,0.000,0
1644802100.294,-101.562,-11.719,-39.062,-78.125,0.000,0
1644802100.298,-136.719,-18.555,-46.387,-88.867,0.000,0
1644802100.302,-142.090,-20.020,-44.434,-109.863,0.000,0
1644802100.306,-114.258,-18.066,-36.621,-115.723,0.000,0
1644802100.310,-98.145,-17.578,-33.691,-94.238,0.000,0
1644802100.314,-89.844,-13.184,-41.504,-76.172,0.000,0
1644802100.317,-110.840,-9.277,-42.969,-72.266,0.000,0
1644802100.321,-135.742,-14.160,-36.133,-78.613,0.000,0
1644802100.323,-127.930,-17.090,-37.598,-110.840,0.000,0
1644802100.327,-99.609,-16.113,-38.574,-100.586,0.000,0
1644802100.330,-104.004,-17.090,-37.109,-77.148,0.000,0
1644802100.334,-134.277,-24.414,-48.828,-84.473,0.000,0
1644802100.338,-140.625,-24.902,-55.664,-105.469,0.000,0
1644802100.342,-117.676,-15.625,-46.387,-116.699,0.000,0
1644802100.346,-98.633,-15.625,-41.504,-109.375,0.000,0
1644802100.350,-88.379,-11.230,-38.086,-94.238,0.000,0
1644802100.354,-103.027,-12.207,-30.762,-82.031,0.000,0
1644802100.358,-124.512,-17.090,-32.715,-94.727,0.000,0
1644802100.362,-116.211,-12.695,-40.527,-116.699,0.000,0
1644802100.365,-95.703,-15.137,-38.574,-111.328,0.000,0
1644802100.368,-91.797,-17.578,-34.668,-92.285,0.000,0
1644802100.372,-102.051,-20.020,-37.109,-87.891,0.000,0
1644802100.376,-128.418,-29.297,-41.504,-100.586,0.000,0
1644802100.380,-128.418,-21.484,-41.504,-112.305,0.000,0
1644802100.384,-104.980,-15.625,-35.645,-98.145,0.000,0
1644802100.388,-88.867,-24.414,-39.551,-77.148,0.000,0
1644802100.392,-100.586,-26.367,-50.293,-74.219,0.000,0
1644802100.396,-120.117,-24.902,-48.828,-73.242,0.000,0
1644802100.399,-119.141,-18.555,-40.039,-92.285,0.000,0
1644802100.403,-111.816,-13.672,-37.109,-118.652,0.000,0
1644802100.407,-101.562,-12.207,-43.457,-109.863,0.000,0
1644802100.411,-115.723,-15.625,-41.016,-95.215,0.000,0
1644802100.413,-131.836,-16.602,-41.016,-93.262,0.000,0
1644802100.417,-131.836,-17.090,-40.527,-108.398,0.000,0
1644802100.421,-106.445,-20.020,-35.156,-107.422,0.000,0
1644802100.425,-82.031,-19.531,-39.551,-85.449,0.000,0
1644802100.429,-96.191,-20.020,-43.457,-83.008,0.000,0
1644802100.433,-111.816,-20.508,-44.922,-89.844,0.000,0
1644802100.437,-117.676,-19.043,-45.898,-105.957,0.000,0
1644802100.441,-102.051,-12.695,-39.062,-117.676,0.000,0
1644802100.444,-84.473,-6.348,-35.156,-100.098,0.000,0
1644802100.448,-97.656,-9.766,-31.738,-91.309,0.000,0
1644802100.452,-116.211,-19.531,-33.691,-85.449,0.000,0
1644802100.456,-125.488,-26.855,-34.180,-87.891,0.000,0
1644802100.458,-109.863,-20.508,-34.180,-105.957,0.000,0
1644802100.461,-82.031,-12.695,-43.457,-101.074,0.000,0
1644802100.465,-84.473,-19.531,-41.504,-81.055,0.000,0
1644802100.469,-112.305,-24.902,-32.715,-83.984,0.000,0
1644802100.473,-129.395,-21.973,-29.297,-91.797,0.000,0
1644802100.477,-108.398,-21.973,-28.320,-93.750,0.000,0
1644802100.481,-90.332,-22.949,-23.438,-87.402,0.000,0
1644802100.485,-102.051,-28.320,-20.996,-73.730,0.000,0
1644802100.489,-124.512,-23.926,-20.020,-74.219,0.000,0
1644802100.493,-129.395,-18.555,-21.973,-97.168,0.000,0
1644802100.496,-108.887,-20.020,-35.156,-109.863,0.000,0
1644802100.500,-94.238,-15.625,-30.762,-96.680,0.000,0
1644802100.502,-99.121,-6.836,-28.809,-82.031,0.000,0
1644802100.506,-113.281,-16.113,-41.992,-87.402,0.000,0
1644802100.510,-134.766,-27.344,-45.410,-107.910,0.000,0
1644802100.513,-127.441,-30.273,-38.086,-119.141,0.000,0
1644802100.517,-107.910,-28.320,-30.273,-111.816,0.000,0
1644802100.521,-103.027,-24.902,-26.855,-102.051,0.000,0
1644802100.525,-116.211,-28.809,-29.297,-84.961,0.000,0
1644802100.529,-138.672,-26.367,-36.133,-91.797,0.000,0
1644802100.533,-125.488,-13.184,-36.133,-130.371,0.000,0
1644802100.537,-94.727,-11.719,-32.227,-112.793,0.000,0
1644802100.541,-92.285,-15.625,-32.227,-90.332,0.000,0
1644802100.544,-115.234,-20.996,-37.109,-100.098,0.000,0
1644802100.548,-141.113,-26.367,-44.434,-101.074,0.000,0
1644802100.551,-137.207,-25.879,-45.410,-121.582,0.000,0
1644802100.555,-114.746,-19.043,-35.645,-126.953,0.000,0
1644802100.559,-100.098,-10.254,-30.762,-102.539,0.000,0
1644802100.563,-110.352,-6.836,-31.738,-94.238,0.000,0
1644802100.567,-130.859,-15.625,-40.039,-84.473,0.000,0
1644802100.571,-125.000,-20.996,-43.457,-102.051,0.000,0
1644802100.575,-107.910,-14.648,-33.203,-122.070,0.000,0
1644802100.578,-104.004,-14.160,-29.785,-100.586,0.000,0
1644802100.582,-110.840,-18.555,-33.203,-78.613,0.000,0
1644802100.586,-129.883,-17.578,-36.621,-80.078,0.000,2
1644802100.590,-141.602,-15.137,-38.574,-107.422,0.000,0
1644802100.592,-122.070,-11.719,-41.504,-114.258,0.000,0
1644802100.596,-100.098,-13.672,-38.086,-94.238,0.000,0
1644802100.600,-111.328,-16.113,-38.086,-88.379,0.000,0
1644802100.604,-141.602,-22.461,-45.898,-98.633,0.000,0
1644802100.608,-150.879,-23.438,-43.457,-104.004,0.000,0
1644802100.612,-122.559,-16.113,-37.109,-106.934,0.000,0
1644802100.616,-100.098,-17.578,-36.133,-87.891,0.000,0
1644802100.620,-111.328,-16.113,-39.062,-86.426,0.000,0
1644802100.623,-134.766,-13.672,-40.039,-105.469,0.000,0
1644802100.627,-141.113,-14.160,-35.645,-105.469,0.000,0
1644802100.631,-131.348,-15.625,-34.668,-120.117,0.000,0
1644802100.635,-107.422,-18.066,-32.715,-113.281,0.000,0
1644802100.637,-99.121,-19.531,-33.203,-75.195,0.000,0
1644802100.641,-127.441,-19.043,-47.852,-59.082,0.000,0
1644802100.645,-151.367,-20.996,-48.340,-92.773,0.000,0
1644802100.649,-125.488,-19.531,-35.645,-112.793,0.000,0
1644802100.653,-97.656,-19.043,-38.574,-90.332,0.000,0
1644802100.657,-105.469,-14.160,-44.922,-78.125,0.000,0
1644802100.661,-118.652,-11.230,-53.711,-84.961,0.000,0
1644802100.665,-140.137,-18.066,-48.828,-106.445,0.000,0
1644802100.668,-123.535,-24.902,-39.551,-109.863,0.000,0
1644802100.672,-86.914,-18.555,-42.480,-96.680,0.000,0
1644802100.676,-99.121,-10.254,-48.828,-77.148,0.000,0
1644802100.680,-125.000,-16.602,-52.734,-77.637,0.000,0
1644802100.682,-143.555,-18.555,-50.781,-116.211,0.000,0
1644802100.686,-129.883,-14.648,-45.898,-126.953,0.000,0
1644802100.690,-110.352,-21.973,-41.992,-113.770,0.000,0
1644802100.694,-110.840,-27.832,-41.504,-103.027,0.000,0
1644802100.698,-122.559,-23.926,-42.969,-96.680,0.000,0
1644802100.702,-146.484,-29.297,-47.852,-97.656,0.000,0
1644802100.706,-141.602,-27.832,-52.246,-101.074,0.000,0
1644802100.709,-113.281,-19.531,-49.805,-99.609,0.000,0
1644802100.713,-101.074,-15.137,-45.898,-88.379,0.000,0
1644802100.717,-121.582,-5.859,-41.504,-91.797,0.000,0
1644802100.721,-148.438,-2.441,-47.363,-100.098,0.000,0
1644802100.725,-143.066,-11.719,-47.363,-117.676,0.000,0
1644802100.727,-125.000,-12.695,-41.504,-123.535,0.000,0
1644802100.731,-110.352,-14.648,-41.504,-101.074,0.000,0
1644802100.735,-117.188,-18.555,-43.457,-96.191,0.000,0
1644802100.739,-141.602,-20.508,-45.410,-93.262,0.000,0
1644802100.743,-135.254,-20.020,-45.410,-108.398,0.000,0
1644802100.747,-104.492,-11.719,-42.480,-113.281,0.000,0
1644802100.751,-94.238,-3.906,-41.992,-98.145,0.000,0
1644802100.754,-99.121,-11.230,-46.387,-90.332,0.000,0
1644802100.758,-125.977,-22.461,-48.340,-83.496,0.000,0
1644802100.762,-144.043,-20.996,-46.875,-100.586,0.000,0
1644802100.766,-129.395,-23.926,-50.293,-107.910,0.000,0
1644802100.770,-106.934,-25.391,-47.363,-95.215,0.000,0
1644802100.772,-103.516,-15.137,-39.062,-85.449,0.000,0
1644802100.776,-122.559,-10.742,-34.180,-82.031,0.000,0
1644802100.780,-141.602,-20.020,-39.551,-89.844,0.000,0
1644802100.784,-124.512,-16.113,-38.086,-93.750,0.000,0
1644802100.788,-84.961,-9.766,-36.621,-86.914,0.000,0
1644802100.792,-93.262,-15.137,-43.945,-84.473,0.000,0
1644802100.796,-134.277,-17.090,-47.852,-79.102,0.000,0
1644802100.799,-137.695,-20.020,-50.781,-80.566,0.000,0
1644802100.803,-119.629,-17.578,-45.898,-97.168,0.000,0
1644802100.807,-104.004,-18.555,-42.969,-89.355,0.000,0
1644802100.811,-97.168,-20.020,-43.945,-72.754,0.000,0
1644802100.815,-109.375,-15.137,-48.828,-83.008,0.000,0
1644802100.817,-116.211,-13.672,-47.852,-99.609,0.000,0
1644802100.821,-103.516,-11.230,-39.551,-104.980,0.000,0
1644802100.825,-90.332,-16.113,-39.062,-91.797,0.000,0
1644802100.829,-85.938,-15.137,-44.434,-77.148,0.000,0
1644802100.833,-105.957,-16.113,-49.316,-77.148,0.000,0
1644802100.837,-135.742,-18.555,-47.852,-85.449,0.000,0
1644802100.840,-121.094,-20.020,-44.434,-100.098,0.000,0
1644802100.844,-98.633,-20.020,-40.039,-95.215,0.000,0
1644802100.848,-97.656,-8.789,-33.691,-91.797,0.000,0
1644802100.852,-100.098,-10.742,-34.668,-88.379,0.000,0
1644802100.856,-124.023,-13.672,-31.738,-77.148,0.000,0
1644802100.860,-130.859,-11.230,-38.574,-96.680,0.000,0
1644802100.862,-91.797,-11.230,-49.805,-108.887,0.000,0
1644802100.866,-84.961,-10.742,-47.363,-95.703,0.000,0
1644802100.870,-110.840,-19.531,-49.805,-90.332,0.000,0
1644802100.874,-132.324,-16.602,-50.781,-85.938,0.000,0
1644802100.878,-135.742,-9.766,-49.316,-105.957,0.000,0
1644802100.881,-109.863,-13.672,-45.898,-114.746,0.000,0
1644802100.885,-100.098,-18.066,-50.781,-103.516,0.000,0
1644802100.889,-117.676,-21.973,-56.641,-106.445,0.000,0
1644802100.893,-136.230,-20.508,-54.199,-104.004,0.000,0
1644802100.897,-145.508,-22.461,-54.688,-110.352,0.000,0
1644802100.901,-123.535,-29.785,-55.664,-106.934,0.000,0
1644802100.905,-101.074,-27.344,-52.734,-92.773,0.000,0
1644802100.908,-106.934,-22.949,-48.828,-79.102,0.000,0
1644802100.912,-136.719,-26.367,-51.270,-78.125,0.000,0
1644802100.915,-129.883,-20.020,-46.875,-90.332,0.000,0
1644802100.919,-92.285,-10.254,-34.180,-102.051,0.000,0
1644802100.923,-77.148,-9.766,-30.273,-83.008,0.000,0
1644802100.927,-66.895,-13.672,-36.133,-43.945,0.000,0
1644802100.931,-99.121,-16.113,-42.480,-54.199,0.000,0
1644802100.935,-125.488,-12.207,-45.898,-91.797,0.000,0
1644802100.939,-102.539,-11.230,-39.062,-95.703,0.000,0
1644802100.942,-86.914,-11.230,-32.715,-84.473,0.000,0
1644802100.946,-83.496,-7.812,-39.062,-66.406,0.000,0
1644802100.950,-107.910,-7.324,-44.922,-68.848,0.000,0
1644802100.953,-121.094,-14.648,-49.316,-96.191,0.000,0
1644802100.957,-100.098,-10.254,-49.316,-105.957,0.000,0
1644802100.961,-87.402,-7.812,-43.457,-87.402,0.000,0
1644802100.965,-84.961,-13.672,-42.969,-77.637,0.000,0
1644802100.969,-107.910,-19.043,-46.875,-76.660,0.000,0
1644802100.973,-123.047,-25.879,-52.246,-89.355,0.000,0
1644802100.976,-110.352,-22.461,-49.805,-96.680,0.000,0
1644802100.980,-101.562,-16.113,-40.527,-94.727,0.000,0
1644802100.984,-94.727,-15.137,-43.457,-77.637,0.000,0
1644802100.988,-103.027,-13.184,-47.852,-54.199,0.000,0
1644802100.992,-129.395,-9.277,-41.504,-66.895,0.000,0
1644802100.996,-124.512,-10.254,-43.945,-91.309,0.000,0
1644802100.999,-88.379,-13.184,-45.410,-110.840,0.000,0
1644802101.003,-79.102,-9.277,-40.039,-101.562,0.000,0
1644802101.007,-105.957,-6.836,-37.109,-82.520,0.000,0
1644802101.010,-138.184,-16.602,-44.922,-85.938,0.000,0
1644802101.014,-132.324,-19.043,-48.828,-97.168,0.000,0
1644802101.018,-104.004,-15.625,-49.805,-93.262,0.000,0
1644802101.022,-99.121,-18.555,-51.758,-84.473,0.000,0
1644802101.026,-98.145,-21.484,-46.875,-92.285,0.000,0
1644802101.030,-124.512,-23.926,-41.016,-82.520,0.000,0
1644802101.034,-139.160,-22.461,-37.109,-88.867,0.000,0
1644802101.037,-104.492,-14.648,-33.691,-96.680,0.000,0
1644802101.041,-84.473,-16.602,-30.273,-58.105,0.000,0
1644802101.044,-76.172,-14.160,-25.879,-45.410,0.000,0
1644802101.048,-116.699,-11.719,-23.438,-72.754,0.000,0
1644802101.052,-140.137,-17.578,-20.508,-103.516,0.000,0
1644802101.056,-109.863,-13.184,-20.508,-107.910,0.000,0
1644802101.060,-84.473,-8.301,-19.531,-100.098,0.000,0
1644802101.064,-88.379,-10.254,-11.230,-74.219,0.000,0
1644802101.067,-117.676,-15.625,-5.859,-57.617,0.000,0
1644802101.071,-114.258,-15.625,4.395,-75.195,0.000,0
1644802101.075,-93.262,-9.766,19.531,-69.824,0.000,0
1644802101.079,-83.496,-3.418,34.668,-44.434,0.000,0
1644802101.083,-82.520,-2.930,43.457,-37.109,0.000,0
1644802101.087,-104.980,-7.324,42.480,-51.270,0.000,0
1644802101.092,-113.281,-0.488,50.293,-61.035,0.000,0
1644802101.095,-88.379,13.184,60.547,-62.988,0.000,0
1644802101.099,-78.613,21.973,61.035,-71.289,0.000,0
1644802101.103,-84.961,20.020,62.012,-59.082,0.000,0
1644802101.107,-94.727,14.160,59.570,-47.363,0.000,0
1644802101.111,-102.539,11.230,57.617,-58.105,0.000,0
1644802101.115,-98.633,18.066,59.082,-75.684,0.000,0
1644802101.119,-72.754,20.996,56.641,-61.523,0.000,0
1644802101.122,-65.918,27.832,64.941,-43.945,0.000,0
1644802101.126,-106.934,34.668,69.336,-44.434,0.000,0
1644802101.130,-117.676,30.762,57.617,-57.617,0.000,0
1644802101.134,-98.145,28.809,49.316,-69.336,0.000,0
1644802101.145,-81.055,31.250,46.387,-65.430,0.000,0
1644802101.148,-83.496,30.762,41.992,-67.871,0.000,0
1644802101.152,-93.262,21.973,38.574,-62.500,0.000,0
1644802101.156,-117.676,23.438,41.992,-58.105,0.000,0
1644802101.160,-119.141,36.133,45.410,-82.520,0.000,0
1644802101.164,-80.078,37.109,42.969,-90.820,0.000,0
1644802101.168,-74.707,28.320,37.109,-65.430,0.000,0
1644802101.172,-103.516,20.996,26.855,-51.758,0.000,0
1644802101.175,-131.836,15.625,19.531,-61.523,0.000,0
1644802101.179,-125.488,15.137,17.090,-90.820,0.000,0
1644802101.183,-86.426,17.578,20.508,-77.148,0.000,0
1644802101.187,-76.660,24.414,21.484,-45.410,0.000,0
1644802101.196,-104.004,28.320,20.996,-55.176,0.000,0
1644802101.200,-126.953,18.066,9.766,-70.801,0.000,0
1644802101.204,-117.188,14.160,1.953,-88.379,0.000,0
1644802101.208,-91.797,21.973,12.695,-86.426,0.000,0
1644802101.212,-81.055,24.902,11.719,-72.266,0.000,0
1644802101.215,-90.332,15.625,-1.465,-68.848,0.000,0
1644802101.219,-122.559,6.836,-10.254,-62.012,0.000,0
1644802101.223,-143.555,1.953,-5.371,-81.055,0.000,0
1644802101.227,-127.441,6.836,-2.441,-110.840,0.000,0
1644802101.231,-86.914,12.207,-3.418,-86.914,0.000,0
1644802101.235,-86.914,4.883,-7.324,-62.012,0.000,0
1644802101.239,-130.859,0.488,-11.719,-62.988,0.000,0
1644802101.247,-145.508,5.371,-5.371,-88.379,0.000,0
1644802101.251,-119.141,2.930,-3.906,-99.609,0.000,0
1644802101.255,-93.750,2.441,-8.789,-89.355,0.000,0
1644802101.259,-92.773,9.277,-12.207,-80.566,0.000,0
1644802101.263,-101.074,13.672,-12.695,-69.336,0.000,0
1644802101.267,-108.398,5.859,-14.648,-65.918,0.000,0
1644802101.271,-113.770,-0.488,-17.090,-81.543,0.000,0
1644802101.274,-102.051,2.930,-5.371,-74.219,0.000,0
1644802101.278,-93.262,3.906,2.441,-53.711,0.000,0
1644802101.282,-114.258,-0.488,-7.812,-47.852,0.000,0
1644802101.286,-126.465,-5.859,-18.066,-73.730,0.000,0
1644802101.290,-105.957,-0.488,-14.648,-107.910,0.000,0
1644802101.299,-83.496,6.836,-6.348,-111.328,0.000,0
1644802101.303,-89.844,4.883,-0.488,-78.125,0.000,0
1644802101.307,-121.582,-0.977,-2.441,-67.383,0.000,0
1644802101.311,-148.438,-5.371,-13.672,-109.375,0.000,0
1644802101.314,-138.672,-4.883,-12.695,-126.953,0.000,0
1644802101.318,-121.582,-11.230,-6.348,-108.887,0.000,0
1644802101.322,-110.840,-12.207,0.488,-92.285,0.000,0
1644802101.326,-113.281,-6.348,13.672,-71.777,0.000,0
1644802101.330,-127.441,-8.301,16.113,-70.801,0.000,0
1644802101.334,-123.047,-10.254,19.043,-99.609,0.000,0
1644802101.338,-97.168,-7.812,27.344,-85.449,0.000,0
1644802101.342,-87.402,-9.277,33.203,-74.707,0.000,0
1644802101.350,-113.770,-14.160,29.297,-81.055,0.000,0
1644802101.354,-140.137,-13.184,21.484,-79.102,0.000,0
1644802101.357,-129.395,-9.277,35.156,-97.168,0.000,0
1644802101.361,-116.699,-13.184,48.828,-104.004,0.000,0
1644802101.365,-102.051,-12.695,43.945,-81.543,0.000,1
1644802101.369,-103.516,-17.090,41.016,-66.406,0.000,0
1644802101.373,-118.164,-19.531,50.781,-74.707,0.000,0
1644802101.377,-111.328,-20.508,57.129,-102.051,0.000,0
1644802101.381,-91.797,-22.949,62.012,-97.656,0.000,0
1644802101.385,-89.355,-17.090,64.941,-66.406,0.000,0
1644802101.389,-106.934,-13.184,62.500,-69.336,0.000,0
1644802101.392,-131.836,-15.625,58.105,-96.191,0.000,0
1644802101.403,-122.070,-16.113,67.383,-107.910,0.000,0
1644802101.407,-86.914,-10.254,81.055,-96.680,0.000,0
1644802101.411,-80.566,0.977,81.055,-85.449,0.000,0
1644802101.415,-92.773,-4.395,72.266,-85.449,0.000,0
1644802101.419,-111.328,-14.648,68.848,-83.008,0.000,0
1644802101.422,-125.000,-13.184,70.801,-92.285,0.000,0
1644802101.426,-108.887,-12.695,70.801,-105.957,0.000,0
1644802101.430,-100.586,-14.648,71.289,-98.145,0.000,0
1644802101.434,-109.375,-19.531,72.266,-79.590,0.000,0
1644802101.438,-116.211,-16.602,68.359,-71.777,0.000,0
1644802101.442,-128.418,-10.742,63.477,-107.422,0.000,0
1644802101.446,-116.211,-19.043,54.199,-122.070,0.000,0
1644802101.455,-91.797,-24.414,56.641,-94.238,0.000,0
1644802101.459,-96.191,-20.996,63.477,-81.543,0.000,0
1644802101.463,-124.023,-17.090,53.223,-92.773,0.000,0
1644802101.467,-128.906,-20.996,35.645,-104.004,0.000,0
1644802101.471,-128.906,-22.461,34.180,-116.699,0.000,0
1644802101.474,-113.770,-15.625,35.645,-110.352,0.000,0
1644802101.478,-105.469,-9.766,30.273,-92.285,0.000,0
1644802101.482,-129.883,-20.996,26.855,-72.266,0.000,0
1644802101.486,-147.949,-26.367,21.484,-86.914,0.000,0
1644802101.490,-134.277,-18.066,18.555,-109.863,0.000,0
1644802101.494,-95.703,-13.184,18.066,-97.168,0.000,0
1644802101.498,-102.539,-21.973,18.066,-82.031,0.000,0
1644802101.507,-128.906,-30.273,4.395,-62.988,0.000,0
1644802101.511,-145.996,-20.996,-3.906,-87.402,0.000,0
1644802101.514,-141.113,-20.020,-2.441,-121.094,0.000,0
1644802101.518,-115.234,-29.785,-8.789,-100.098,0.000,0
1644802101.522,-115.234,-27.344,-12.207,-81.543,0.000,0
1644802101.526,-114.258,-21.484,-16.602,-74.707,0.000,0
1644802101.530,-127.930,-31.250,-17.090,-77.637,0.000,0
1644802101.534,-143.066,-35.156,-24.414,-99.121,0.000,0
1644802101.538,-116.211,-21.973,-25.391,-84.961,0.000,0
1644802101.542,-97.168,-19.043,-20.508,-69.336,0.000,0
1644802101.546,-109.863,-27.344,-26.855,-87.402,0.000,0
1644802101.550,-133.301,-30.762,-31.738,-91.309,0.000,0
1644802101.558,-136.230,-27.832,-34.668,-99.609,0.000,0
1644802101.562,-119.629,-24.902,-34.180,-114.746,0.000,0
1644802101.565,-107.910,-25.879,-28.320,-84.473,0.000,0
1644802101.569,-114.746,-31.250,-31.250,-63.965,0.000,0
1644802101.573,-145.020,-32.227,-45.410,-84.961,0.000,0
1644802101.577,-148.438,-33.203,-52.246,-103.027,0.000,0
1644802101.581,-118.164,-26.855,-44.922,-111.328,0.000,0
1644802101.585,-101.562,-22.461,-42.480,-96.191,0.000,0
1644802101.589,-106.445,-21.484,-41.992,-77.637,0.000,0
1644802101.593,-129.395,-22.949,-38.574,-80.078,0.000,0
1644802101.597,-137.695,-28.320,-43.457,-96.680,0.000,0
1644802101.601,-103.027,-33.203,-44.922,-100.098,0.000,0
1644802101.607,-97.168,-31.250,-45.410,-94.238,0.000,0
1644802101.611,-116.211,-34.668,-48.340,-92.773,0.000,0
1644802101.615,-118.652,-41.016,-46.875,-72.754,0.000,0
1644802101.619,-126.465,-41.016,-52.734,-83.008,0.000,0
1644802101.623,-119.141,-33.203,-49.316,-104.980,0.000,0
1644802101.627,-99.609,-26.367,-39.551,-76.172,0.000,0
1644802101.631,-92.773,-31.738,-49.316,-63.477,0.000,0
1644802101.635,-120.605,-37.109,-60.059,-85.449,0.000,0
1644802101.639,-140.137,-35.156,-59.570,-98.633,0.000,0
1644802101.643,-121.582,-36.621,-48.828,-95.215,0.000,0
1644802101.646,-106.445,-33.691,-41.992,-84.473,0.000,0
1644802101.650,-100.586,-28.809,-46.875,-81.543,0.000,0
1644802101.656,-117.188,-31.738,-55.664,-84.961,0.000,0
1644802101.660,-133.789,-33.691,-57.129,-104.004,0.000,0
1644802101.664,-132.324,-32.227,-51.270,-92.773,0.000,0
1644802101.668,-101.562,-22.461,-50.781,-86.914,0.000,0
1644802101.672,-89.844,-22.949,-55.664,-97.168,0.000,0
1644802101.675,-105.957,-22.461,-57.129,-73.242,0.000,0
1644802101.679,-117.676,-26.855,-52.246,-78.613,0.000,0
1644802101.683,-119.629,-28.320,-52.246,-102.539,0.000,0
1644802101.687,-102.051,-17.090,-52.734,-109.863,0.000,0
1644802101.691,-99.609,-16.113,-53.711,-101.074,0.000,0
1644802101.695,-114.746,-16.113,-56.641,-92.285,0.000,0
1644802101.699,-130.371,-13.672,-56.152,-101.074,0.000,0
1644802101.704,-120.117,-11.719,-57.129,-109.863,0.000,0
1644802101.708,-99.609,-15.625,-65.430,-111.328,0.000,0
1644802101.712,-98.145,-14.648,-61.035,-90.820,0.000,0
1644802101.716,-117.676,-7.324,-54.688,-76.660,0.000,0
1644802101.720,-135.742,-15.625,-67.383,-76.660,0.000,0
1644802101.723,-127.441,-31.250,-73.730,-89.844,0.000,0
1644802101.727,-108.887,-26.367,-64.453,-90.820,0.000,0
1644802101.731,-93.750,-11.230,-53.711,-88.379,0.000,0
1644802101.735,-102.051,-7.324,-55.664,-91.797,0.000,0
1644802101.739,-124.023,-20.020,-61.035,-85.449,0.000,0
1644802101.743,-125.000,-22.461,-69.336,-90.332,0.000,0
1644802101.747,-118.652,-15.137,-76.660,-100.586,0.000,0
1644802101.751,-104.004,-17.090,-71.777,-92.773,0.000,0
1644802101.755,-113.770,-12.695,-63.965,-78.125,0.000,0
1644802101.759,-133.301,-11.719,-62.012,-69.336,0.000,0
1644802101.762,-132.812,-19.043,-66.406,-102.051,0.000,0
1644802101.766,-111.816,-23.438,-66.406,-112.305,0.000,0
1644802101.770,-80.566,-20.996,-62.988,-84.473,0.000,0
1644802101.774,-94.238,-22.949,-67.871,-76.172,0.000,0
1644802101.778,-132.324,-28.320,-74.219,-89.355,0.000,0
1644802101.782,-139.160,-28.809,-72.266,-100.098,0.000,0
1644802101.786,-111.328,-28.320,-73.242,-91.797,0.000,0
1644802101.790,-99.121,-22.949,-76.660,-84.961,0.000,0
1644802101.794,-116.211,-12.695,-74.219,-92.285,0.000,0
1644802101.796,-134.277,-20.508,-79.102,-91.309,0.000,0
1644802101.800,-131.836,-35.156,-85.449,-96.680,0.000,0
1644802101.804,-100.586,-28.320,-80.078,-97.656,0.000,0
1644802101.808,-89.844,-21.484,-73.730,-93.262,0.000,0
1644802101.812,-110.352,-24.414,-77.148,-92.285,0.000,0
1644802101.816,-122.559,-26.855,-83.984,-75.195,0.000,0
1644802101.820,-141.113,-24.414,-75.684,-83.496,0.000,0
1644802101.824,-138.184,-20.020,-67.383,-105.957,0.000,0
1644802101.828,-98.145,-15.137,-69.824,-96.191,0.000,0
1644802101.832,-90.820,-15.137,-79.590,-83.008,0.000,0
1644802101.836,-121.094,-17.090,-89.844,-101.562,0.000,0
1644802101.840,-143.066,-19.531,-87.402,-126.465,0.000,0
1644802101.841,-125.000,-20.020,-82.520,-120.117,0.000,0
1644802101.845,-95.703,-19.043,-80.566,-92.773,0.000,0
1644802101.849,-96.191,-14.648,-79.102,-94.727,0.000,0
1644802101.853,-111.816,-16.113,-79.590,-78.613,0.000,0
1644802101.857,-121.094,-20.996,-76.660,-68.359,0.000,0
1644802101.861,-126.465,-21.973,-70.801,-101.562,0.000,0
1644802101.865,-99.609,-18.555,-77.148,-93.262,0.000,0
1644802101.869,-75.684,-17.578,-91.797,-80.566,0.000,0
1644802101.873,-97.656,-26.855,-95.703,-94.727,0.000,0
1644802101.876,-130.859,-29.297,-94.238,-105.469,0.000,0
1644802101.880,-122.070,-23.926,-89.844,-126.953,0.000,0
1644802101.884,-90.820,-18.555,-83.008,-107.422,0.000,0
1644802101.887,-86.426,-19.531,-86.426,-76.660,0.000,0
1644802101.890,-99.121,-25.391,-84.961,-89.355,0.000,0
1644802101.894,-120.117,-28.320,-85.449,-106.445,0.000,0
1644802101.898,-129.883,-31.250,-88.867,-114.258,0.000,0
1644802101.902,-103.027,-30.273,-93.750,-123.047,0.000,0
1644802101.906,-87.891,-25.879,-103.027,-104.492,0.000,0
1644802101.910,-97.168,-24.902,-98.145,-85.449,0.000,0
1644802101.914,-117.676,-28.320,-97.168,-89.844,0.000,0
1644802101.918,-123.047,-21.973,-100.586,-100.586,0.000,0
1644802101.922,-84.473,-12.695,-91.309,-104.492,0.000,0
1644802101.926,-73.730,-12.207,-86.914,-97.656,0.000,0
1644802101.930,-103.027,-12.207,-93.262,-84.961,0.000,0
1644802101.931,-116.699,-20.020,-99.609,-78.613,0.000,0
1644802101.935,-121.582,-26.367,-95.215,-87.402,0.000,0
1644802101.939,-101.562,-21.484,-86.426,-101.562,0.000,0
1644802101.943,-76.660,-20.020,-89.844,-85.449,0.000,0
1644802101.947,-80.078,-18.066,-91.309,-66.406,0.000,0
1644802101.951,-98.633,-21.484,-86.426,-65.430,0.000,0
1644802101.955,-113.770,-20.996,-91.309,-74.219,0.000,0
1644802101.959,-107.422,-18.555,-91.309,-80.566,0.000,0
1644802101.963,-90.332,-20.996,-85.449,-80.566,0.000,0
1644802101.966,-83.984,-17.578,-86.426,-92.773,0.000,0
1644802101.970,-90.820,-14.648,-84.961,-82.031,0.000,0
1644802101.974,-112.305,-18.555,-87.891,-65.918,0.000,0
1644802101.976,-116.211,-19.043,-86.426,-100.098,0.000,0
1644802101.980,-89.844,-15.137,-84.473,-89.355,0.000,0
1644802101.984,-86.914,-19.043,-82.520,-70.801,0.000,0
1644802101.988,-106.934,-17.090,-80.078,-74.219,0.000,0
1644802101.992,-130.371,-15.137,-88.867,-86.426,0.000,0
1644802101.996,-114.746,-14.160,-89.355,-106.934,0.000,0
1644802102.000,-79.102,-15.137,-85.449,-93.750,0.000,0
1644802102.003,-74.219,-16.602,-83.496,-78.125,0.000,0
1644802102.007,-108.398,-9.766,-80.566,-71.777,0.000,0
1644802102.011,-136.719,-9.766,-90.820,-76.172,0.000,0
1644802102.015,-105.957,-11.719,-99.609,-86.426,0.000,0
1644802102.019,-78.613,-3.906,-88.867,-89.844,0.000,0
1644802102.021,-81.543,1.953,-79.102,-97.656,0.000,0
1644802102.025,-94.238,-7.324,-81.055,-88.867,0.000,0
1644802102.029,-121.582,-16.602,-83.008,-84.961,0.000,0
1644802102.033,-112.305,-14.160,-77.148,-107.910,0.000,0
1644802102.036,-86.426,-3.906,-77.637,-105.469,0.000,0
1644802102.040,-86.914,-6.348,-74.707,-84.961,0.000,0
1644802102.044,-101.074,-21.484,-73.730,-66.895,0.000,0
1644802102.048,-127.930,-22.461,-78.125,-78.125,0.000,0
1644802102.052,-128.906,-12.207,-76.660,-124.512,0.000,0
1644802102.056,-95.215,-7.812,-76.660,-125.977,0.000,0
1644802102.060,-77.148,-5.859,-72.754,-83.496,0.000,0
1644802102.064,-102.051,-2.930,-72.754,-73.242,0.000,0
1644802102.066,-122.559,-5.371,-76.660,-77.148,0.000,0
1644802102.069,-116.699,-10.254,-80.078,-102.539,0.000,0
1644802102.073,-91.797,-4.395,-78.613,-122.559,0.000,0
1644802102.077,-75.195,0.488,-69.824,-90.332,0.000,0
1644802102.081,-88.379,-4.883,-72.754,-73.730,0.000,0
1644802102.085,-111.816,-14.160,-84.961,-70.312,0.000,0
1644802102.089,-121.582,-19.043,-89.355,-90.332,0.000,0
1644802102.093,-107.422,-11.719,-85.449,-109.375,0.000,0
1644802102.097,-84.473,-4.395,-79.102,-91.309,0.000,0
1644802102.101,-83.008,-4.395,-84.473,-73.730,0.000,0
1644802102.105,-104.004,-7.324,-93.750,-71.777,0.000,0
1644802102.108,-123.535,-12.207,-85.449,-97.656,0.000,0
1644802102.111,-102.539,-9.277,-76.660,-122.070,0.000,0
1644802102.115,-85.449,-7.812,-84.473,-104.492,0.000,0
1644802102.119,-101.074,-10.742,-88.379,-86.914,0.000,0
1644802102.122,-106.934,-5.859,-81.055,-87.891,0.000,0
1644802102.126,-121.094,-3.418,-79.102,-111.328,0.000,0
1644802102.130,-100.586,-0.977,-76.172,-117.676,0.000,0
1644802102.134,-75.684,-0.488,-71.777,-103.516,0.000,0
1644802102.138,-82.031,0.000,-71.289,-89.355,0.000,0
1644802102.142,-88.867,1.953,-68.359,-65.918,0.000,0
1644802102.146,-110.840,-9.277,-67.383,-74.707,0.000,0
1644802102.150,-108.398,-4.395,-71.777,-107.422,0.000,0
1644802102.154,-91.797,-1.465,-74.707,-104.004,0.000,0
1644802102.156,-78.613,-7.324,-69.336,-85.938,0.000,0
1644802102.160,-88.379,-10.742,-70.312,-78.125,0.000,0
1644802102.164,-133.301,-16.602,-77.148,-100.586,0.000,0
1644802102.168,-125.488,-12.207,-73.730,-128.906,0.000,0
1644802102.172,-92.773,-13.184,-68.848,-108.887,0.000,0
1644802102.175,-82.520,-16.602,-70.801,-78.125,0.000,0
1644802102.179,-101.562,-11.719,-75.684,-83.496,0.000,0
1644802102.183,-136.230,-18.066,-78.613,-110.352,0.000,0
1644802102.187,-122.559,-22.461,-77.637,-116.699,0.000,0
1644802102.191,-96.680,-17.090,-70.801,-96.191,0.000,0
1644802102.195,-93.750,-10.254,-64.453,-84.473,0.000,0
1644802102.199,-102.539,-8.301,-73.730,-85.449,0.000,0
1644802102.201,-118.652,-10.742,-80.078,-77.148,0.000,0
1644802102.205,-126.953,-9.277,-73.242,-112.305,0.000,0
1644802102.209,-107.422,-7.812,-69.824,-128.418,0.000,0
1644802102.213,-85.449,-7.812,-67.871,-86.914,0.000,0
1644802102.217,-98.145,-11.719,-67.383,-73.242,0.000,0
1644802102.221,-116.211,-18.555,-66.406,-79.590,0.000,0
1644802102.225,-125.977,-17.090,-66.406,-97.656,0.000,0
1644802102.229,-96.680,-9.766,-71.289,-105.957,0.000,0
1644802102.232,-78.613,-12.695,-68.848,-88.867,0.000,0
1644802102.236,-96.191,-14.648,-65.918,-84.473,0.000,1
1644802102.240,-123.047,-11.719,-72.266,-93.750,0.000,0
1644802102.244,-135.742,-10.254,-71.289,-112.305,0.000,0
1644802102.246,-114.258,-9.277,-67.871,-110.352,0.000,0
1644802102.250,-95.215,-8.301,-69.824,-91.309,0.000,0
1644802102.254,-96.191,-7.812,-65.918,-84.961,0.000,0
1644802102.258,-121.582,-14.648,-66.406,-90.332,0.000,0
1644802102.262,-135.742,-14.648,-73.730,-110.840,0.000,0
1644802102.266,-121.582,-10.254,-70.312,-120.605,0.000,0
1644802102.270,-93.262,-9.277,-63.477,-109.375,0.000,0
1644802102.274,-85.449,-14.648,-62.500,-78.613,0.000,0
1644802102.278,-113.770,-17.090,-61.035,-69.824,0.000,0
1644802102.282,-134.277,-15.137,-59.570,-103.027,0.000,0
1644802102.285,-113.770,-21.973,-56.641,-115.234,0.000,0
1644802102.289,-82.520,-16.602,-64.941,-98.145,0.000,0
1644802102.292,-92.773,-11.719,-73.730,-91.309,0.000,0
1644802102.296,-120.117,-15.625,-78.125,-91.797,0.000,0
1644802102.299,-131.836,-20.020,-89.844,-104.004,0.000,0
1644802102.303,-120.605,-21.484,-87.891,-115.723,0.000,0
1644802102.307,-100.586,-19.531,-81.543,-104.004,0.000,0
1644802102.311,-93.262,-20.508,-76.172,-99.121,0.000,0
1644802102.315,-106.934,-19.043,-72.266,-91.797,0.000,0
1644802102.319,-128.418,-23.926,-74.707,-90.820,0.000,0
1644802102.323,-126.953,-24.414,-69.336,-108.398,0.000,0
1644802102.327,-111.816,-14.648,-63.965,-105.957,0.000,0
1644802102.331,-95.703,-14.648,-64.453,-89.355,0.000,0
1644802102.335,-99.121,-17.578,-62.500,-80.566,0.000,0
1644802102.337,-130.859,-17.578,-65.918,-90.332,0.000,0
1644802102.341,-124.023,-13.672,-74.219,-108.887,0.000,0
1644802102.345,-88.867,-12.695,-74.219,-105.957,0.000,0
1644802102.349,-75.684,-16.113,-69.824,-106.445,0.000,0
1644802102.353,-89.355,-13.672,-67.383,-109.375,0.000,0
1644802102.357,-135.742,-12.207,-66.895,-100.586,0.000,0
1644802102.361,-128.906,-15.625,-68.848,-106.445,0.000,0
1644802102.365,-96.191,-11.230,-68.848,-113.770,0.000,0
1644802102.368,-90.332,-4.395,-64.453,-103.516,0.000,0
1644802102.372,-92.773,-6.348,-62.012,-95.703,0.000,0
1644802102.376,-115.234,-12.207,-61.035,-95.703,0.000,0
1644802102.380,-122.559,-20.020,-68.359,-107.422,0.000,0
1644802102.382,-114.258,-19.043,-62.988,-110.840,0.000,0
1644802102.386,-95.703,-9.766,-53.711,-89.355,0.000,0
1644802102.390,-91.309,-5.371,-59.570,-78.613,0.000,0
1644802102.394,-112.305,-9.277,-61.035,-96.680,0.000,0
1644802102.398,-120.605,-9.277,-58.594,-110.352,0.000,0
1644802102.402,-99.609,-8.301,-49.805,-107.422,0.000,0
1644802102.406,-91.797,-7.324,-46.875,-107.910,0.000,0
1644802102.410,-111.816,-2.441,-57.617,-102.539,0.000,0
1644802102.414,-140.625,-4.883,-66.406,-113.281,0.000,0
1644802102.418,-145.508,-12.207,-62.500,-133.789,0.000,0
1644802102.421,-115.234,-8.301,-61.035,-116.699,0.000,0
1644802102.425,-88.867,4.883,-66.895,-94.727,0.000,0
1644802102.428,-91.797,7.324,-63.965,-105.957,0.000,0
1644802102.432,-118.652,-3.418,-63.477,-108.398,0.000,0
1644802102.435,-131.348,-2.930,-62.500,-104.980,0.000,0
1644802102.439,-107.910,1.465,-60.547,-117.188,0.000,0
1644802102.443,-82.520,-2.441,-59.082,-102.051,0.000,0
1644802102.447,-83.496,-8.301,-62.500,-86.914,0.000,0
1644802102.451,-99.609,-7.812,-65.918,-88.867,0.000,0
1644802102.455,-141.113,-3.418,-56.641,-102.051,0.000,0
1644802102.459,-130.371,-2.930,-49.805,-110.840,0.000,0
1644802102.463,-94.727,-4.883,-55.664,-105.469,0.000,0
1644802102.467,-83.008,-12.207,-59.082,-98.145,0.000,0
1644802102.470,-97.168,-15.137,-69.824,-99.121,0.000,0
1644802102.473,-127.441,-18.066,-76.660,-110.352,0.000,0
1644802102.477,-119.141,-15.625,-68.359,-122.070,0.000,0
1644802102.481,-85.449,-10.254,-62.500,-110.840,0.000,0
1644802102.485,-72.266,-10.742,-62.500,-88.379,0.000,0
1644802102.489,-90.820,-7.324,-58.594,-83.496,0.000,0
1644802102.493,-116.699,-8.301,-56.641,-83.008,0.000,0
1644802102.497,-123.535,-17.090,-59.082,-100.098,0.000,0
1644802102.500,-108.887,-13.672,-57.129,-99.609,0.000,0
1644802102.504,-88.379,-15.625,-57.129,-83.008,0.000,0
1644802102.508,-94.238,-19.043,-59.570,-75.684,0.000,0
1644802102.512,-130.859,-12.695,-60.547,-82.031,0.000,0
1644802102.516,-144.531,-12.207,-64.453,-111.816,0.000,0
1644802102.519,-110.840,-12.695,-61.523,-110.352,0.000,0
1644802102.523,-91.309,-12.207,-58.105,-94.727,0.000,0
1644802102.527,-98.633,-8.301,-53.711,-89.355,0.000,0
1644802102.530,-120.117,-7.812,-56.641,-83.496,0.000,0
1644802102.534,-120.605,-12.695,-62.988,-86.914,0.000,0
1644802102.538,-95.215,-13.672,-67.871,-88.379,0.000,0
1644802102.542,-79.102,-6.348,-62.988,-88.867,0.000,0
1644802102.546,-89.844,-0.977,-48.828,-69.824,0.000,0
1644802102.550,-115.234,-13.184,-48.340,-65.430,0.000,0
1644802102.554,-120.117,-22.461,-51.758,-93.262,0.000,0
1644802102.558,-105.469,-10.742,-48.828,-112.305,0.000,0
1644802102.562,-83.008,3.418,-44.922,-98.633,0.000,0
1644802102.565,-78.125,0.000,-47.852,-75.684,0.000,0
1644802102.569,-99.609,-8.301,-56.641,-83.008,0.000,0
1644802102.573,-125.977,-9.766,-60.547,-108.887,0.000,0
1644802102.576,-112.305,-14.160,-55.664,-114.258,0.000,0
1644802102.580,-85.938,-15.137,-46.875,-90.332,0.000,0
1644802102.584,-93.750,-11.719,-41.992,-76.660,0.000,0
1644802102.588,-122.559,-12.695,-51.758,-80.078,0.000,0
1644802102.592,-117.676,-14.648,-63.965,-89.844,0.000,0
1644802102.596,-99.609,-20.996,-64.453,-83.984,0.000,0
1644802102.600,-99.121,-19.043,-57.129,-81.055,0.000,0
1644802102.604,-97.656,-14.160,-48.340,-103.027,0.000,0
1644802102.608,-115.723,-20.020,-53.223,-102.051,0.000,0
1644802102.611,-137.207,-19.531,-61.035,-95.215,0.000,0
1644802102.615,-117.676,-8.789,-59.082,-108.887,0.000,0
1644802102.619,-89.355,-5.859,-54.199,-100.586,0.000,0
1644802102.623,-86.914,-6.836,-51.758,-67.383,0.000,0
1644802102.627,-100.098,-5.859,-51.758,-58.594,0.000,0
1644802102.631,-124.512,-11.719,-53.711,-79.102,0.000,0
1644802102.635,-111.816,-15.625,-60.059,-101.074,0.000,0
1644802102.638,-78.613,-12.695,-62.012,-93.750,0.000,0
1644802102.642,-73.242,-9.766,-60.547,-83.984,0.000,0
1644802102.646,-87.402,-6.836,-57.129,-74.219,0.000,0
1644802102.650,-115.234,-6.836,-57.617,-90.332,0.000,0
1644802102.654,-120.117,-14.648,-55.664,-94.727,0.000,0
1644802102.657,-99.121,-6.348,-50.293,-79.590,0.000,0
1644802102.661,-95.215,-0.488,-52.734,-89.844,0.000,0
1644802102.664,-103.516,-12.695,-50.293,-78.125,0.000,0
1644802102.668,-126.953,-18.555,-54.688,-89.355,0.000,0
1644802102.672,-125.977,-13.672,-58.594,-114.746,0.000,0
1644802102.676,-100.098,-10.742,-55.176,-112.305,0.000,0
1644802102.680,-88.379,-13.184,-55.176,-101.562,0.000,0
1644802102.684,-103.027,-14.648,-54.199,-88.379,0.000,0
1644802102.688,-125.977,-16.602,-56.641,-99.609,0.000,0
1644802102.692,-132.812,-16.602,-62.500,-126.465,0.000,0
1644802102.696,-113.770,-16.602,-61.523,-115.234,0.000,0
1644802102.699,-99.121,-13.672,-56.641,-93.262,0.000,0
1644802102.702,-109.375,-7.324,-51.758,-95.215,0.000,0
1644802102.706,-128.418,-2.930,-55.664,-87.891,0.000,0
1644802102.710,-121.094,-7.324,-53.711,-102.539,0.000,0
1644802102.714,-98.633,-9.766,-53.223,-118.164,0.000,0
1644802102.718,-93.262,-4.395,-53.711,-103.027,0.000,0
1644802102.722,-94.238,-4.395,-46.875,-98.145,0.000,0
1644802102.726,-109.375,-8.789,-50.781,-90.820,0.000,0
1644802102.729,-131.836,-12.695,-59.082,-92.285,0.000,0
1644802102.733,-122.070,-5.859,-57.617,-115.234,0.000,0
1644802102.737,-88.379,-1.953,-52.734,-111.816,0.000,0
1644802102.741,-78.613,-1.953,-49.805,-87.891,0.000,0
1644802102.745,-89.844,-1.465,-46.387,-83.496,0.000,0
1644802102.748,-108.887,-5.859,-49.805,-100.586,0.000,0
1644802102.752,-100.098,-4.883,-50.293,-108.887,0.000,0
1644802102.755,-81.055,-3.418,-44.434,-95.215,0.000,0
1644802102.759,-83.984,-6.348,-47.363,-84.961,0.000,0
1644802102.763,-103.027,-15.137,-59.082,-92.285,0.000,0
1644802102.767,-125.488,-22.461,-61.035,-102.539,0.000,0
1644802102.771,-115.234,-18.066,-56.641,-96.191,0.000,0
1644802102.775,-90.332,-8.789,-44.434,-84.473,0.000,0
1644802102.779,-84.961,-3.418,-42.969,-92.773,0.000,0
1644802102.783,-102.539,-4.395,-56.152,-95.215,0.000,0
1644802102.787,-127.930,-5.859,-56.641,-88.379,0.000,0
1644802102.790,-118.164,-4.395,-48.340,-95.215,0.000,0
1644802102.794,-84.473,-4.883,-44.922,-87.402,0.000,0
1644802102.797,-83.008,-3.418,-48.340,-71.289,0.000,0
1644802102.801,-104.004,-3.906,-51.758,-69.824,0.000,0
1644802102.805,-124.023,-5.859,-49.805,-71.777,0.000,0
1644802102.809,-122.559,-5.371,-52.734,-83.984,0.000,0
1644802102.813,-90.820,-8.301,-51.758,-83.008,0.000,0
1644802102.817,-79.590,-9.277,-43.945,-61.523,0.000,0
1644802102.821,-100.586,-2.930,-41.016,-64.453,0.000,0
1644802102.825,-112.305,-5.859,-45.898,-79.102,0.000,0
1644802102.829,-108.398,-8.789,-45.898,-90.332,0.000,0
1644802102.832,-98.633,-1.465,-35.156,-95.703,0.000,0
1644802102.836,-93.262,-1.465,-33.691,-88.379,0.000,0
1644802102.839,-98.145,-6.348,-37.598,-77.148,0.000,0
1644802102.843,-125.000,-9.277,-43.945,-90.332,0.000,0
1644802102.847,-120.605,-9.766,-45.898,-110.840,0.000,0
1644802102.851,-93.262,-8.789,-42.969,-112.305,0.000,0
1644802102.855,-98.145,-10.742,-46.875,-99.121,0.000,0
1644802102.859,-104.004,-9.766,-50.293,-81.543,0.000,0
1644802102.863,-119.629,-15.625,-45.410,-79.590,0.000,0
1644802102.867,-124.023,-12.695,-37.109,-100.586,0.000,0
1644802102.870,-110.840,-8.789,-31.738,-112.793,0.000,0
1644802102.874,-84.961,-10.254,-35.156,-82.031,0.000,0
1644802102.878,-88.867,-8.301,-40.039,-83.496,0.000,0
1644802102.882,-121.582,-10.254,-41.016,-90.820,0.000,0
1644802102.885,-135.254,-16.602,-45.410,-94.727,0.000,0
1644802102.889,-107.422,-16.602,-44.922,-121.094,0.000,0
1644802102.893,-88.379,-3.906,-32.715,-111.328,0.000,0
1644802102.897,-113.281,-4.395,-26.367,-91.797,0.000,0
1644802102.901,-124.512,-12.695,-28.320,-85.938,0.000,0
1644802102.905,-128.418,-14.648,-34.180,-86.914,0.000,0
1644802102.909,-108.887,-7.324,-32.715,-97.168,0.000,0
1644802102.912,-85.449,-3.906,-23.926,-85.449,0.000,0
1644802102.916,-85.938,-10.254,-25.391,-71.777,0.000,0
1644802102.920,-90.820,-10.254,-38.086,-64.453,0.000,0
1644802102.924,-104.492,0.488,-37.109,-83.984,0.000,0
1644802102.928,-112.305,2.441,-34.668,-111.816,0.000,0
1644802102.931,-96.191,-0.977,-34.668,-106.934,0.000,0
1644802102.935,-94.238,0.977,-33.691,-83.496,0.000,0
1644802102.939,-111.328,-5.371,-42.969,-79.590,0.000,0
1644802102.943,-129.395,-14.648,-43.457,-98.145,0.000,0
1644802102.947,-127.930,-13.672,-35.645,-112.305,0.000,0
1644802102.950,-100.098,-9.766,-35.645,-100.098,0.000,0
1644802102.954,-94.238,-6.348,-38.086,-86.914,0.000,0
1644802102.958,-111.816,-7.812,-41.016,-73.242,0.000,0
1644802102.962,-128.418,-14.648,-35.156,-78.125,0.000,0
1644802102.966,-121.582,-14.648,-33.203,-111.816,0.000,0
1644802102.970,-95.703,-8.301,-35.645,-123.535,0.000,0
1644802102.974,-89.844,-4.395,-32.227,-94.238,0.000,0
1644802102.977,-107.910,-3.418,-35.645,-82.031,0.000,0
1644802102.981,-125.977,-7.812,-38.086,-89.355,0.000,0
1644802102.985,-117.188,-9.766,-39.062,-99.609,0.000,0
1644802102.989,-79.102,-7.812,-34.668,-100.098,0.000,0
1644802102.993,-68.848,-8.301,-27.344,-93.750,0.000,0
1644802102.997,-93.262,-3.906,-24.414,-84.473,0.000,0
1644802103.001,-125.977,-4.883,-27.832,-83.496,0.000,0
1644802103.004,-128.906,-12.207,-28.320,-97.656,0.000,0
1644802103.008,-101.562,-14.648,-21.973,-99.121,0.000,0
1644802103.012,-89.355,-6.836,-22.949,-97.656,0.000,0
1644802103.016,-101.562,-11.719,-25.391,-95.215,0.000,0
1644802103.020,-131.348,-26.367,-26.367,-96.680,0.000,0
1644802103.023,-135.742,-16.113,-27.344,-105.469,0.000,0
1644802103.027,-118.652,-9.277,-29.297,-113.281,0.000,0
1644802103.031,-85.938,-11.719,-32.715,-94.727,0.000,0
1644802103.035,-88.867,-10.742,-35.645,-70.801,0.000,0
1644802103.038,-136.230,-12.207,-39.062,-77.148,0.000,0
1644802103.042,-144.043,-13.184,-36.621,-109.375,0.000,0
1644802103.046,-113.770,-17.578,-33.691,-120.605,0.000,0
1644802103.050,-92.773,-16.113,-30.273,-100.586,0.000,0
1644802103.054,-97.656,-9.277,-26.855,-75.195,0.000,0
1644802103.058,-121.094,-9.277,-31.738,-74.707,0.000,0
1644802103.062,-133.789,-17.578,-34.180,-95.215,0.000,0
1644802103.066,-111.816,-21.973,-30.762,-99.121,0.000,0
1644802103.069,-88.379,-17.578,-29.785,-94.727,0.000,0
1644802103.073,-94.727,-20.996,-30.762,-89.355,0.000,0
1644802103.076,-116.211,-22.461,-40.039,-85.938,0.000,0
1644802103.080,-134.766,-24.414,-46.387,-101.074,0.000,0
1644802103.084,-125.000,-29.785,-40.039,-107.910,0.000,0
1644802103.088,-98.145,-25.391,-27.344,-79.102,0.000,0
1644802103.092,-80.078,-22.949,-29.297,-54.199,0.000,0
1644802103.096,-101.562,-21.973,-38.574,-79.102,0.000,0
1644802103.100,-147.949,-19.531,-38.086,-108.887,0.000,0
1644802103.104,-125.977,-23.926,-32.227,-108.398,0.000,0
1644802103.107,-86.914,-21.484,-26.367,-95.215,0.000,1
1644802103.111,-88.867,-16.113,-34.668,-85.938,0.000,0
1644802103.115,-110.840,-13.672,-35.645,-83.984,0.000,0
1644802103.119,-129.395,-20.508,-34.180,-87.891,0.000,0
1644802103.123,-115.723,-22.949,-29.785,-98.145,0.000,0
1644802103.126,-91.309,-14.160,-21.973,-92.773,0.000,0
1644802103.130,-90.332,-16.113,-23.926,-89.844,0.000,0
1644802103.134,-101.074,-21.973,-36.133,-84.473,0.000,0
1644802103.138,-116.211,-25.391,-41.992,-71.777,0.000,0
1644802103.142,-120.117,-26.367,-41.504,-87.891,0.000,0
1644802103.146,-100.586,-13.672,-34.668,-105.469,0.000,0
1644802103.150,-87.891,-10.254,-29.785,-89.355,0.000,0
1644802103.154,-101.074,-20.020,-33.203,-69.824,0.000,0
1644802103.157,-130.371,-20.508,-39.551,-86.914,0.000,0
1644802103.160,-132.812,-20.020,-39.551,-103.027,0.000,0
1644802103.164,-98.633,-19.531,-29.297,-96.191,0.000,0
1644802103.168,-88.867,-19.531,-32.227,-89.844,0.000,0
1644802103.172,-107.910,-17.090,-37.598,-92.285,0.000,0
1644802103.176,-121.582,-12.695,-34.180,-109.375,0.000,0
1644802103.180,-121.582,-19.531,-37.109,-118.652,0.000,0
1644802103.184,-99.609,-20.508,-31.250,-110.352,0.000,0
1644802103.188,-80.566,-12.207,-20.996,-84.473,0.000,0
1644802103.191,-87.891,-15.625,-24.902,-79.102,0.000,0
1644802103.195,-113.770,-27.832,-41.992,-74.219,0.000,0
1644802103.199,-132.812,-26.855,-40.527,-80.078,0.000,0
1644802103.203,-104.004,-18.066,-30.762,-101.562,0.000,0
1644802103.206,-71.777,-16.602,-39.062,-95.215,0.000,0
1644802103.210,-90.820,-17.090,-46.875,-90.820,0.000,0
1644802103.214,-117.676,-19.531,-43.457,-83.496,0.000,0
1644802103.218,-115.723,-20.020,-41.016,-91.309,0.000,0
1644802103.222,-94.238,-20.996,-41.992,-113.281,0.000,0
1644802103.226,-78.125,-14.648,-41.992,-99.609,0.000,0
1644802103.230,-76.172,-7.812,-39.062,-76.660,0.000,0
1644802103.234,-96.191,-16.602,-41.992,-75.195,0.000,0
1644802103.238,-133.789,-21.484,-52.734,-99.609,0.000,0
1644802103.241,-122.559,-15.137,-53.223,-120.605,0.000,0
1644802103.245,-87.402,-13.184,-43.945,-106.445,0.000,0
1644802103.249,-83.496,-13.184,-41.992,-94.238,0.000,0
1644802103.253,-109.863,-19.043,-41.504,-87.891,0.000,0
1644802103.257,-129.883,-25.879,-45.410,-87.891,0.000,0
1644802103.261,-120.605,-20.996,-47.363,-108.398,0.000,0
1644802103.265,-90.332,-11.719,-37.109,-101.562,0.000,0
1644802103.268,-81.055,-6.836,-31.250,-73.242,0.000,0
1644802103.272,-98.145,-14.648,-38.574,-77.148,0.000,0
1644802103.276,-110.352,-16.113,-49.805,-96.191,0.000,0
1644802103.280,-104.004,-11.719,-48.828,-107.422,0.000,0
1644802103.284,-94.238,-22.949,-41.992,-99.609,0.000,0
1644802103.288,-89.844,-21.973,-39.062,-68.359,0.000,0
1644802103.292,-100.586,-13.672,-42.969,-64.453,0.000,0
1644802103.296,-123.047,-17.578,-46.875,-85.938,0.000,0
1644802103.299,-115.234,-14.160,-46.875,-101.562,0.000,0
1644802103.303,-99.121,-11.230,-49.316,-99.121,0.000,0
1644802103.307,-97.168,-18.066,-48.828,-84.473,0.000,0
1644802103.311,-105.957,-25.879,-50.293,-88.379,0.000,0
1644802103.314,-130.859,-25.879,-53.223,-98.633,0.000,0
1644802103.318,-130.371,-21.484,-47.363,-109.375,0.000,0
1644802103.322,-105.469,-16.113,-41.504,-104.004,0.000,0
1644802103.326,-92.773,-16.602,-42.969,-91.309,0.000,0
1644802103.330,-108.887,-18.066,-47.363,-100.098,0.000,0
1644802103.334,-139.648,-11.719,-54.199,-107.422,0.000,0
1644802103.338,-148.438,-14.160,-58.594,-112.793,0.000,0
1644802103.342,-125.488,-22.461,-54.199,-115.234,0.000,0
1644802103.345,-101.074,-25.391,-48.828,-100.586,0.000,0
1644802103.349,-105.957,-18.555,-43.457,-87.891,0.000,0
1644802103.353,-119.141,-17.578,-42.969,-79.590,0.000,0
1644802103.356,-116.699,-20.508,-42.969,-93.262,0.000,0
1644802103.360,-94.238,-13.672,-41.504,-99.121,0.000,0
1644802103.364,-100.586,-11.230,-45.410,-94.727,0.000,0
1644802103.368,-106.445,-7.324,-43.945,-93.262,0.000,0
1644802103.372,-106.934,-7.812,-42.480,-80.078,0.000,0
1644802103.376,-121.094,-12.207,-45.410,-86.914,0.000,0
1644802103.380,-108.887,-3.906,-37.109,-100.098,0.000,0
1644802103.384,-80.566,0.488,-28.809,-94.727,0.000,0
1644802103.388,-76.660,-0.488,-32.715,-77.148,0.000,0
1644802103.391,-112.793,-1.953,-38.574,-74.219,0.000,0
1644802103.395,-128.906,-2.930,-38.086,-101.562,0.000,0
1644802103.399,-104.004,-0.977,-28.809,-110.352,0.000,0
1644802103.402,-92.285,-1.465,-30.762,-111.328,0.000,0
1644802103.406,-86.426,0.000,-39.062,-103.516,0.000,0
1644802103.410,-96.191,-2.930,-42.480,-75.195,0.000,0
1644802103.414,-114.258,-11.719,-45.410,-81.543,0.000,0
1644802103.418,-104.004,-16.113,-43.945,-89.844,0.000,0
1644802103.422,-93.750,-8.789,-39.551,-79.590,0.000,0
1644802103.426,-87.891,-1.465,-31.738,-76.660,0.000,0
1644802103.430,-96.680,-2.441,-39.062,-64.453,0.000,0
1644802103.433,-128.418,-3.418,-54.688,-81.055,0.000,0
1644802103.437,-127.441,-2.441,-46.875,-110.840,0.000,0
1644802103.441,-101.074,0.977,-39.551,-117.188,0.000,0
1644802103.444,-86.914,1.465,-44.922,-92.285,0.000,0
1644802103.448,-96.680,-0.488,-48.340,-68.359,0.000,0
1644802103.452,-126.953,-7.324,-51.758,-82.520,0.000,0
1644802103.456,-128.906,-4.883,-50.781,-92.773,0.000,0
1644802103.460,-94.238,-1.465,-43.945,-81.543,0.000,0
1644802103.464,-83.008,-3.418,-44.922,-73.242,0.000,0
1644802103.468,-102.051,-1.465,-50.293,-87.402,0.000,0
1644802103.472,-126.953,-15.137,-58.105,-91.309,0.000,0
1644802103.475,-133.789,-15.137,-58.594,-106.934,0.000,0
1644802103.479,-101.074,-1.465,-45.898,-123.535,0.000,0
1644802103.483,-73.242,5.859,-39.551,-96.680,0.000,0
1644802103.487,-82.520,0.488,-33.691,-75.684,0.000,0
1644802103.491,-117.188,-8.301,-40.527,-92.285,0.000,0
1644802103.495,-132.812,-9.766,-51.758,-120.117,0.000,0
1644802103.498,-104.004,-3.906,-49.316,-122.559,0.000,0
1644802103.502,-91.309,-3.418,-45.898,-102.051,0.000,0
1644802103.506,-95.215,-7.324,-44.922,-88.379,0.000,0
1644802103.510,-117.188,-6.836,-42.480,-84.473,0.000,0
1644802103.514,-133.301,-5.371,-45.410,-108.887,0.000,0
1644802103.518,-104.004,-5.859,-46.387,-113.770,0.000,0
1644802103.522,-89.355,-3.906,-42.969,-99.121,0.000,0
1644802103.526,-94.727,0.000,-36.133,-99.609,0.000,0
1644802103.529,-109.375,-6.348,-33.203,-95.703,0.000,0
1644802103.533,-119.141,-14.648,-37.598,-92.285,0.000,0
1644802103.537,-106.934,-12.695,-35.645,-109.375,0.000,0
1644802103.541,-96.680,-8.789,-33.203,-106.934,0.000,0
1644802103.545,-91.797,-8.789,-42.480,-84.473,0.000,0
1644802103.549,-105.469,-13.184,-51.758,-83.496,0.000,0
1644802103.552,-121.582,-12.695,-47.363,-93.262,0.000,0
1644802103.556,-106.445,-6.836,-39.062,-113.770,0.000,0
1644802103.560,-89.844,-10.254,-34.668,-108.887,0.000,0
1644802103.564,-73.730,-13.184,-36.133,-84.473,0.000,0
1644802103.568,-95.215,-13.672,-40.527,-77.148,0.000,0
1644802103.572,-119.629,-11.230,-46.875,-94.727,0.000,0
1644802103.575,-100.586,-12.695,-48.828,-108.398,0.000,0
1644802103.579,-82.520,-12.207,-46.387,-110.840,0.000,0
1644802103.583,-81.543,-11.230,-44.434,-97.168,0.000,0
1644802103.587,-105.957,-10.742,-42.480,-97.656,0.000,0
1644802103.591,-120.605,-13.184,-40.527,-106.445,0.000,0
1644802103.595,-110.352,-13.672,-42.480,-104.980,0.000,0
1644802103.599,-85.938,-12.207,-44.434,-97.168,0.000,0
1644802103.603,-86.426,-15.625,-39.551,-84.961,0.000,0
1644802103.606,-109.375,-17.090,-41.504,-82.520,0.000,0
1644802103.610,-123.047,-17.578,-45.898,-78.125,0.000,0
1644802103.614,-112.305,-5.371,-42.480,-108.887,0.000,0
1644802103.618,-83.496,1.465,-43.945,-112.793,0.000,0
1644802103.622,-70.312,-2.441,-44.922,-82.031,0.000,0
1644802103.625,-85.449,-6.836,-42.480,-89.355,0.000,0
1644802103.629,-123.047,-13.672,-43.457,-107.910,0.000,0
1644802103.633,-125.000,-20.020,-44.922,-109.375,0.000,0
1644802103.637,-102.051,-20.020,-43.457,-99.121,0.000,0
1644802103.641,-82.031,-17.090,-40.527,-102.051,0.000,0
1644802103.645,-89.844,-13.184,-41.992,-103.027,0.000,0
1644802103.649,-115.234,-12.207,-45.410,-98.633,0.000,0
1644802103.653,-115.234,-19.043,-46.875,-103.027,0.000,0
1644802103.656,-101.562,-17.090,-39.551,-104.004,0.000,0
1644802103.660,-92.285,-10.254,-38.574,-102.539,0.000,0
1644802103.664,-93.262,-11.719,-45.410,-91.797,0.000,0
1644802103.668,-116.699,-15.137,-43.457,-88.379,0.000,0
1644802103.672,-131.836,-18.066,-44.922,-110.352,0.000,0
1644802103.675,-109.375,-17.090,-42.969,-122.070,0.000,0
1644802103.679,-93.262,-10.742,-42.969,-103.027,0.000,0
1644802103.683,-96.680,-9.277,-46.875,-83.984,0.000,0
1644802103.687,-118.164,-15.137,-46.875,-75.684,0.000,0
1644802103.691,-126.465,-17.578,-46.387,-90.332,0.000,0
1644802103.695,-106.934,-15.625,-46.387,-107.422,0.000,0
1644802103.699,-85.449,-15.625,-45.410,-98.145,0.000,0
1644802103.703,-90.820,-16.113,-45.898,-95.215,0.000,0
1644802103.706,-118.164,-17.090,-48.340,-104.980,0.000,0
1644802103.710,-128.418,-20.508,-47.363,-107.422,0.000,0
1644802103.714,-120.605,-22.461,-46.875,-124.023,0.000,0
1644802103.718,-98.145,-19.531,-47.852,-116.211,0.000,0
1644802103.722,-82.031,-9.277,-43.457,-82.031,0.000,0
1644802103.726,-98.633,-13.184,-39.062,-79.590,0.000,0
1644802103.730,-111.816,-19.531,-40.527,-83.496,0.000,0
1644802103.734,-101.562,-14.648,-38.086,-95.215,0.000,0
1644802103.737,-96.680,-13.672,-33.203,-104.980,0.000,0
1644802103.741,-98.145,-14.648,-37.598,-94.727,0.000,0
1644802103.745,-117.188,-18.555,-35.645,-84.473,0.000,0
1644802103.749,-131.836,-17.578,-32.715,-96.680,0.000,0
1644802103.753,-120.117,-18.066,-41.016,-108.887,0.000,0
1644802103.757,-97.168,-14.160,-41.504,-101.074,0.000,0
1644802103.760,-90.332,-9.277,-38.574,-73.242,0.000,0
1644802103.764,-104.980,-10.742,-38.574,-65.918,0.000,0
1644802103.768,-122.070,-11.230,-33.691,-89.355,0.000,0
1644802103.772,-111.816,-8.301,-32.227,-102.539,0.000,0
1644802103.776,-95.215,-11.230,-34.668,-114.746,0.000,0
1644802103.780,-97.168,-15.137,-33.691,-115.723,0.000,0
1644802103.784,-113.770,-21.973,-37.598,-95.215,0.000,0
1644802103.787,-141.602,-20.996,-46.875,-89.355,0.000,0
1644802103.791,-139.648,-11.719,-48.828,-104.004,0.000,0
1644802103.795,-94.727,-4.883,-34.668,-110.352,0.000,0
1644802103.799,-71.289,-6.836,-33.691,-104.004,0.000,0
1644802103.803,-94.238,-9.277,-46.387,-93.750,0.000,0
1644802103.806,-130.859,-7.324,-46.387,-90.332,0.000,0
1644802103.810,-146.484,-13.184,-40.527,-122.070,0.000,0
1644802103.814,-124.512,-17.578,-36.133,-129.883,0.000,0
1644802103.818,-98.145,-15.625,-40.527,-112.793,0.000,0
1644802103.822,-115.234,-16.602,-43.457,-112.305,0.000,0
1644802103.826,-149.902,-20.996,-45.410,-108.887,0.000,0
1644802103.830,-137.695,-23.438,-49.805,-106.445,0.000,0
1644802103.833,-107.910,-22.949,-41.504,-115.723,0.000,0
1644802103.837,-105.957,-11.719,-33.203,-113.770,0.000,0
1644802103.841,-110.352,-4.883,-36.133,-99.121,0.000,0
1644802103.845,-125.000,-9.277,-39.062,-95.215,0.000,0
1644802103.849,-133.789,-11.719,-44.922,-115.723,0.000,0
1644802103.852,-127.441,-11.230,-47.363,-131.348,0.000,0
1644802103.856,-101.562,-8.301,-41.504,-123.535,0.000,0
1644802103.860,-102.539,-11.719,-36.621,-105.957,0.000,0
1644802103.864,-125.000,-18.066,-37.598,-99.609,0.000,0
1644802103.868,-133.301,-15.137,-43.457,-105.957,0.000,0
1644802103.872,-124.023,-13.184,-42.969,-122.559,0.000,0
1644802103.876,-109.863,-14.160,-37.109,-112.305,0.000,0
1644802103.879,-106.445,-12.207,-39.551,-99.121,0.000,0
1644802103.883,-116.699,-9.766,-41.016,-104.004,0.000,0
1644802103.887,-138.672,-10.254,-34.180,-101.562,0.000,0
1644802103.891,-128.418,-13.184,-33.203,-111.328,0.000,0
1644802103.895,-96.680,-3.418,-28.809,-106.934,0.000,0
1644802103.898,-81.543,3.906,-24.902,-95.703,0.000,0
1644802103.902,-93.750,-2.441,-31.250,-83.984,0.000,0
1644802103.906,-111.816,-10.742,-35.156,-82.520,0.000,0
1644802103.910,-115.723,-8.789,-24.414,-94.727,0.000,0
1644802103.914,-88.867,-5.371,-17.090,-96.191,0.000,0
1644802103.918,-69.336,-9.766,-23.438,-75.195,0.000,0
1644802103.921,-91.309,-11.230,-25.391,-61.523,0.000,0
1644802103.925,-125.000,-9.277,-28.809,-82.520,0.000,0
1644802103.929,-126.465,-10.742,-32.227,-102.539,0.000,0
1644802103.933,-100.098,-11.230,-31.250,-103.516,0.000,0
1644802103.937,-88.867,-9.277,-31.250,-95.703,0.000,0
1644802103.941,-103.027,-8.789,-35.645,-80.566,0.000,0
1644802103.945,-126.465,-13.184,-40.527,-89.844,0.000,0
1644802103.948,-125.977,-18.555,-43.457,-116.699,0.000,0
1644802103.952,-99.609,-11.719,-39.062,-113.281,0.000,0
1644802103.956,-91.797,-0.488,-36.621,-105.469,0.000,0
1644802103.960,-104.004,-1.953,-40.527,-90.332,0.000,0
1644802103.964,-119.141,-13.184,-44.434,-87.891,0.000,0
1644802103.968,-118.164,-18.066,-37.598,-114.258,0.000,0
1644802103.972,-89.355,-8.301,-29.297,-120.605,0.000,0
1644802103.976,-77.637,-0.488,-31.250,-88.867,0.000,1
1644802103.979,-105.469,-7.324,-32.715,-70.312,0.000,0
1644802103.983,-125.000,-16.113,-34.180,-76.172,0.000,0
1644802103.987,-125.488,-17.090,-38.086,-100.098,0.000,0
1644802103.991,-103.027,-10.742,-33.203,-112.793,0.000,0
1644802103.995,-76.172,-6.836,-28.320,-94.238,0.000,0
1644802103.999,-88.379,-7.812,-32.227,-84.473,0.000,0
1644802104.002,-114.258,-9.766,-36.621,-93.262,0.000,0
1644802104.006,-136.230,-14.160,-38.574,-105.957,0.000,0
1644802104.010,-122.070,-11.230,-35.645,-114.258,0.000,0
1644802104.014,-98.145,-4.883,-31.738,-114.258,0.000,0
1644802104.018,-102.539,-0.977,-30.762,-103.516,0.000,0
1644802104.022,-107.422,-1.953,-35.645,-90.332,0.000,0
1644802104.026,-127.930,-4.395,-38.574,-89.355,0.000,0
1644802104.030,-123.535,-4.883,-38.574,-117.188,0.000,0
1644802104.033,-91.309,-4.395,-38.086,-114.746,0.000,0
1644802104.037,-87.891,-0.977,-32.715,-89.844,0.000,0
1644802104.041,-121.582,-8.301,-39.062,-83.984,0.000,0
1644802104.045,-137.207,-11.230,-42.969,-106.934,0.000,0
1644802104.049,-122.070,-6.348,-37.598,-125.977,0.000,0
1644802104.053,-102.539,-9.766,-39.062,-112.793,0.000,0
1644802104.056,-91.797,-13.672,-41.504,-101.562,0.000,0
1644802104.060,-116.211,-10.742,-44.434,-98.633,0.000,0
1644802104.064,-145.996,-11.230,-50.781,-105.469,0.000,0
1644802104.068,-131.348,-14.160,-45.898,-106.934,0.000,0
1644802104.072,-100.586,-8.301,-35.156,-111.328,0.000,0
1644802104.076,-86.914,-5.859,-37.109,-109.863,0.000,0
1644802104.080,-97.168,-7.812,-43.457,-85.938,0.000,0
1644802104.083,-123.535,-12.207,-44.434,-90.332,0.000,0
1644802104.087,-119.629,-7.812,-40.527,-104.004,0.000,0
1644802104.091,-96.680,-3.418,-35.645,-104.004,0.000,0
1644802104.095,-93.750,-13.184,-34.668,-93.262,0.000,0
1644802104.099,-104.980,-19.043,-36.621,-79.102,0.000,0
1644802104.103,-124.023,-18.555,-37.109,-86.914,0.000,0
1644802104.107,-124.512,-15.137,-39.551,-96.680,0.000,0
1644802104.110,-93.750,-10.254,-37.109,-92.285,0.000,0
1644802104.114,-85.938,-7.812,-28.320,-92.285,0.000,0
1644802104.118,-101.562,-5.371,-28.320,-91.309,0.000,0
1644802104.122,-118.164,-7.812,-42.969,-79.102,0.000,0
1644802104.126,-131.348,-15.625,-44.922,-98.145,0.000,0
1644802104.129,-118.652,-14.648,-34.180,-114.746,0.000,0
1644802104.133,-98.145,-6.836,-35.645,-97.656,0.000,0
1644802104.137,-91.309,-7.324,-41.016,-89.844,0.000,0
1644802104.141,-124.023,-13.184,-49.805,-102.051,0.000,0
1644802104.145,-139.160,-16.602,-50.293,-117.676,0.000,0
1644802104.149,-96.680,-14.160,-42.969,-116.211,0.000,0
1644802104.153,-93.750,-6.348,-42.480,-104.004,0.000,0
1644802104.157,-112.793,-5.371,-45.898,-80.078,0.000,0
1644802104.160,-114.746,-8.301,-46.387,-72.754,0.000,0
1644802104.164,-129.883,-9.277,-43.945,-105.469,0.000,0
1644802104.168,-116.699,-12.207,-48.828,-109.375,0.000,0
1644802104.172,-91.797,-9.766,-47.852,-90.820,0.000,0
1644802104.176,-85.449,-4.883,-41.992,-82.520,0.000,0
1644802104.180,-109.863,-9.277,-40.039,-76.660,0.000,0
1644802104.184,-117.188,-12.207,-49.316,-96.191,0.000,0
1644802104.188,-101.074,-4.395,-52.246,-108.887,0.000,0
1644802104.191,-90.332,7.324,-45.410,-97.168,0.000,0
1644802104.195,-91.797,10.742,-45.898,-87.891,0.000,0
1644802104.199,-112.305,-4.395,-47.363,-77.637,0.000,0
1644802104.203,-116.699,-10.254,-39.551,-92.285,0.000,0
1644802104.207,-106.445,-2.930,-38.086,-108.398,0.000,0
1644802104.211,-96.680,-4.395,-45.898,-92.773,0.000,0
1644802104.215,-94.727,-5.371,-44.922,-87.891,0.000,0
1644802104.219,-107.422,-8.301,-46.387,-86.914,0.000,0
1644802104.222,-122.070,-8.789,-49.316,-82.520,0.000,0
1644802104.226,-107.910,-7.324,-47.363,-101.074,0.000,0
1644802104.230,-84.473,-3.418,-43.945,-99.121,0.000,0
1644802104.234,-80.566,4.395,-46.875,-79.590,0.000,0
1644802104.238,-89.844,-4.883,-49.316,-78.613,0.000,0
1644802104.241,-112.793,-12.695,-48.828,-87.402,0.000,0
1644802104.245,-108.887,-4.395,-41.504,-72.754,0.000,0
1644802104.249,-77.148,-0.977,-39.551,-69.824,0.000,0
1644802104.253,-74.707,-1.465,-44.922,-86.426,0.000,0
1644802104.257,-88.379,-2.930,-45.410,-79.590,0.000,0
1644802104.261,-112.305,-12.695,-53.711,-69.336,0.000,0
1644802104.265,-113.281,-15.137,-58.594,-100.586,0.000,0
1644802104.269,-83.496,-9.766,-50.293,-107.422,0.000,0
1644802104.272,-75.684,-14.160,-49.805,-83.984,0.000,0
1644802104.276,-92.773,-10.742,-51.270,-93.262,0.000,0
1644802104.280,-124.512,-9.766,-49.316,-91.797,0.000,0
1644802104.284,-126.953,-14.648,-45.410,-103.027,0.000,0
1644802104.288,-87.891,-12.695,-42.969,-98.633,0.000,0
1644802104.292,-71.289,-8.301,-42.969,-83.984,0.000,0
1644802104.296,-95.703,-7.812,-43.945,-90.820,0.000,0
1644802104.300,-122.559,-11.230,-48.340,-83.496,0.000,0
1644802104.303,-120.117,-14.648,-47.852,-87.891,0.000,0
1644802104.307,-100.586,-12.207,-48.828,-101.562,0.000,0
1644802104.311,-83.496,-7.812,-53.711,-96.680,0.000,0
1644802104.315,-90.332,-14.160,-51.758,-93.262,0.000,0
1644802104.319,-118.652,-20.020,-51.270,-99.609,0.000,0
1644802104.323,-126.953,-16.602,-51.270,-110.352,0.000,0
1644802104.327,-110.352,-16.113,-47.852,-116.699,0.000,0
1644802104.330,-83.984,-9.766,-45.898,-99.121,0.000,0
1644802104.334,-79.590,-6.836,-41.992,-80.078,0.000,0
1644802104.338,-108.887,-14.648,-45.410,-85.938,0.000,0
1644802104.342,-130.371,-18.555,-54.688,-104.980,0.000,0
1644802104.346,-118.164,-11.230,-49.316,-111.816,0.000,0
1644802104.350,-95.215,-8.789,-37.109,-85.449,0.000,0
1644802104.354,-92.773,-4.883,-36.133,-85.449,0.000,0
1644802104.358,-120.605,-2.930,-45.410,-87.891,0.000,0
1644802104.361,-132.812,-10.254,-52.734,-100.098,0.000,0
1644802104.365,-112.305,-10.742,-50.781,-130.371,0.000,0
1644802104.369,-84.473,-5.371,-40.527,-108.398,0.000,0
1644802104.373,-78.613,0.000,-36.133,-90.820,0.000,0
1644802104.377,-109.375,1.465,-38.086,-88.379,0.000,0
1644802104.381,-119.141,-6.348,-39.551,-83.984,0.000,0
1644802104.385,-97.168,-12.695,-41.016,-91.797,0.000,0
1644802104.388,-88.867,-9.766,-44.434,-102.051,0.000,0
1644802104.392,-91.309,-11.719,-51.758,-86.914,0.000,0
1644802104.396,-101.562,-15.625,-56.641,-81.543,0.000,0
1644802104.400,-136.719,-12.695,-54.688,-103.027,0.000,0
1644802104.404,-131.348,-6.348,-49.316,-110.840,0.000,0
1644802104.408,-90.332,0.000,-44.434,-104.492,0.000,0
1644802104.412,-86.426,-4.883,-42.480,-92.773,0.000,0
1644802104.416,-99.121,-5.859,-41.504,-78.613,0.000,0
1644802104.420,-111.816,-6.348,-41.504,-80.078,0.000,0
1644802104.423,-114.746,-13.184,-53.223,-92.285,0.000,0
1644802104.427,-85.449,-4.395,-56.152,-94.727,0.000,0
1644802104.431,-71.289,-1.465,-43.945,-82.520,0.000,0
1644802104.435,-92.773,-2.930,-46.875,-77.637,0.000,0
1644802104.439,-110.352,-4.883,-49.805,-77.637,0.000,0
1644802104.443,-115.723,-7.324,-41.504,-92.285,0.000,0
1644802104.447,-107.422,-6.348,-31.250,-113.770,0.000,0
1644802104.451,-80.566,0.000,-28.809,-89.844,0.000,0
1644802104.454,-79.102,2.441,-36.621,-64.941,0.000,0
1644802104.458,-116.699,-5.859,-41.016,-76.172,0.000,0
1644802104.462,-131.836,-14.160,-47.852,-107.422,0.000,0
1644802104.466,-105.469,-16.602,-53.223,-119.141,0.000,0
1644802104.470,-89.355,-16.113,-54.199,-105.957,0.000,0
1644802104.474,-99.121,-17.578,-51.270,-88.867,0.000,0
1644802104.478,-122.070,-19.043,-46.387,-80.566,0.000,0
1644802104.481,-132.812,-22.949,-45.898,-94.238,0.000,0
1644802104.485,-103.516,-13.184,-39.062,-107.422,0.000,0
1644802104.489,-87.891,-4.395,-34.668,-93.750,0.000,0
1644802104.493,-104.980,-9.277,-42.969,-84.473,0.000,0
1644802104.497,-124.512,-18.066,-48.340,-84.473,0.000,0
1644802104.501,-133.301,-16.113,-50.293,-89.844,0.000,0
1644802104.504,-116.211,-10.254,-51.270,-107.910,0.000,0
1644802104.508,-92.285,-1.953,-46.875,-107.422,0.000,0
1644802104.512,-88.379,8.789,-42.480,-102.539,0.000,0
1644802104.516,-110.840,8.789,-46.387,-94.238,0.000,0
1644802104.520,-131.836,0.977,-50.293,-97.168,0.000,0
1644802104.524,-125.488,-0.488,-49.805,-108.398,0.000,0
1644802104.528,-99.609,-1.465,-49.805,-98.633,0.000,0
1644802104.532,-99.609,-2.930,-50.781,-99.121,0.000,0
1644802104.535,-125.000,2.930,-50.781,-114.746,0.000,0
1644802104.539,-130.859,1.465,-54.688,-108.398,0.000,0
1644802104.543,-127.930,-0.977,-53.223,-107.422,0.000,0
1644802104.547,-107.422,-0.488,-48.340,-117.188,0.000,0
1644802104.551,-99.609,0.977,-49.316,-111.816,0.000,0
1644802104.555,-113.281,0.000,-48.340,-98.633,0.000,0
1644802104.559,-133.789,-3.418,-54.688,-96.680,0.000,0
1644802104.563,-137.695,-5.371,-60.059,-113.770,0.000,0
1644802104.567,-109.863,-3.906,-44.434,-110.840,0.000,0
1644802104.570,-93.750,-6.348,-40.527,-93.262,0.000,0
1644802104.574,-103.516,-14.648,-53.711,-91.309,0.000,0
1644802104.578,-126.465,-10.254,-50.293,-89.355,0.000,0
1644802104.582,-127.930,-6.348,-44.434,-111.328,0.000,0
1644802104.586,-98.633,-9.277,-47.363,-120.117,0.000,0
1644802104.590,-106.934,-8.789,-44.434,-106.445,0.000,0
1644802104.593,-121.094,-6.836,-41.504,-92.773,0.000,0
1644802104.597,-123.047,-9.766,-39.551,-83.496,0.000,0
1644802104.601,-134.277,-20.508,-46.875,-111.328,0.000,0
1644802104.605,-115.234,-17.578,-48.340,-110.352,0.000,0
1644802104.609,-91.309,-9.277,-45.410,-88.867,0.000,0
1644802104.613,-92.285,-9.766,-46.387,-86.914,0.000,0
1644802104.617,-103.516,-13.672,-40.527,-90.332,0.000,0
1644802104.620,-117.676,-16.113,-40.039,-100.098,0.000,0
1644802104.624,-110.840,-9.277,-34.180,-109.863,0.000,0
1644802104.628,-88.867,-7.812,-33.691,-87.402,0.000,0
1644802104.632,-100.098,-11.230,-44.922,-66.895,0.000,0
1644802104.636,-120.117,-9.277,-43.457,-90.820,0.000,0
1644802104.640,-125.977,-8.301,-42.480,-108.398,0.000,0
1644802104.643,-95.215,-5.859,-42.969,-100.098,0.000,0
1644802104.647,-61.035,-1.465,-37.598,-78.125,0.000,0
1644802104.651,-85.449,-2.930,-39.062,-61.523,0.000,0
1644802104.655,-115.723,-13.184,-41.016,-57.129,0.000,0
1644802104.659,-115.723,-21.973,-34.668,-76.660,0.000,0
1644802104.663,-93.262,-18.066,-26.367,-81.055,0.000,0
1644802104.667,-80.078,-7.324,-23.438,-87.891,0.000,0
1644802104.671,-75.684,-8.301,-25.879,-84.473,0.000,0
1644802104.674,-100.098,-8.789,-33.691,-67.383,0.000,0
1644802104.678,-127.441,-8.301,-34.668,-82.031,0.000,0
1644802104.682,-109.863,-8.789,-33.203,-105.469,0.000,0
1644802104.686,-81.543,-8.301,-32.715,-97.168,0.000,0
1644802104.690,-77.148,-2.930,-33.691,-75.684,0.000,0
1644802104.694,-97.656,2.930,-35.156,-74.707,0.000,0
1644802104.698,-112.793,-4.883,-37.109,-100.586,0.000,0
1644802104.702,-98.145,-10.254,-37.109,-113.281,0.000,0
1644802104.705,-83.008,-7.324,-35.156,-101.074,0.000,0
1644802104.709,-83.496,-3.418,-34.180,-80.566,0.000,0
1644802104.713,-105.469,-2.930,-28.809,-76.660,0.000,0
1644802104.717,-125.000,-6.348,-30.273,-87.891,0.000,0
1644802104.721,-104.004,-5.371,-31.250,-98.633,0.000,0
1644802104.725,-82.520,3.906,-28.320,-101.074,0.000,0
1644802104.729,-81.543,4.395,-27.344,-80.566,0.000,0
1644802104.732,-87.891,-2.441,-28.320,-71.777,0.000,0
1644802104.736,-113.770,-1.953,-34.668,-76.172,0.000,0
1644802104.740,-116.699,0.977,-34.180,-90.332,0.000,0
1644802104.744,-93.262,-1.953,-31.250,-97.168,0.000,0
1644802104.748,-89.355,-5.859,-30.762,-75.684,0.000,0
1644802104.752,-94.727,-10.742,-34.180,-71.777,0.000,0
1644802104.756,-113.770,-17.578,-39.062,-87.891,0.000,0
1644802104.760,-113.281,-18.555,-39.062,-102.051,0.000,0
1644802104.763,-86.426,-16.113,-34.668,-104.004,0.000,0
1644802104.767,-84.961,-11.230,-33.691,-83.984,0.000,0
1644802104.771,-107.910,-12.207,-44.434,-90.332,0.000,0
1644802104.775,-126.953,-15.625,-51.270,-98.633,0.000,0
1644802104.779,-135.742,-10.254,-46.387,-107.422,0.000,0
1644802104.783,-99.609,-8.789,-40.527,-89.844,0.000,0
1644802104.787,-82.031,-10.254,-39.551,-74.219,0.000,0
1644802104.791,-108.887,-14.160,-37.109,-80.078,0.000,0
1644802104.794,-118.164,-16.602,-32.227,-88.867,0.000,0
1644802104.798,-121.094,-14.160,-31.738,-105.957,0.000,0
1644802104.802,-98.633,-10.742,-31.738,-103.516,0.000,0
1644802104.806,-73.730,-2.930,-26.367,-72.266,0.000,0
1644802104.810,-83.984,-0.488,-29.785,-60.059,0.000,0
1644802104.814,-113.770,-7.812,-44.922,-72.266,0.000,0
1644802104.818,-125.977,-15.137,-45.898,-77.148,0.000,0
1644802104.822,-101.562,-11.719,-36.621,-86.914,0.000,0
1644802104.825,-76.172,1.465,-30.273,-82.031,0.000,0
1644802104.829,-85.449,5.371,-28.809,-81.543,0.000,0
1644802104.833,-112.793,-3.906,-33.691,-79.102,0.000,0
1644802104.837,-125.977,-11.719,-35.156,-81.055,0.000,0
1644802104.841,-106.934,-5.859,-38.086,-92.773,0.000,0
1644802104.845,-77.148,-0.488,-40.527,-78.613,0.000,0
1644802104.849,-85.449,-5.371,-37.598,-62.988,0.000,0
1644802104.852,-104.980,-11.719,-42.480,-53.711,0.000,0
1644802104.856,-124.512,-14.160,-46.387,-61.035,0.000,0
1644802104.860,-125.000,-10.742,-39.551,-99.121,0.000,0
1644802104.864,-87.402,-8.301,-40.039,-113.770,0.000,0
1644802104.868,-84.473,-7.812,-43.457,-91.309,0.000,0
1644802104.872,-111.816,-13.184,-39.551,-73.242,0.000,0
1644802104.876,-126.953,-18.555,-43.457,-91.797,0.000,0
1644802104.879,-121.582,-13.672,-39.062,-121.094,0.000,0
1644802104.883,-93.750,-8.301,-23.926,-109.375,0.000,1
1644802104.887,-79.102,-9.277,-27.344,-98.633,0.000,0
1644802104.891,-106.934,-14.160,-39.062,-88.867,0.000,0
1644802104.895,-131.348,-19.043,-43.457,-91.797,0.000,0
1644802104.899,-111.816,-18.066,-44.922,-108.887,0.000,0
1644802104.903,-88.867,-12.695,-38.574,-103.027,0.000,0
1644802104.907,-80.078,-6.348,-39.062,-96.191,0.000,0
1644802104.910,-94.727,-1.465,-37.109,-79.102,0.000,0
1644802104.914,-121.094,-0.488,-35.156,-72.754,0.000,0
1644802104.918,-125.488,-3.418,-39.551,-101.074,0.000,0
1644802104.922,-98.633,0.000,-34.668,-108.887,0.000,0
1644802104.926,-86.426,-4.395,-37.598,-88.379,0.000,0
1644802104.930,-105.469,-10.254,-44.434,-84.473,0.000,0
1644802104.934,-128.906,-8.789,-42.969,-91.797,0.000,0
1644802104.937,-128.418,-10.742,-41.016,-89.844,0.000,0
1644802104.941,-100.098,-14.160,-40.039,-90.820,0.000,0
1644802104.945,-90.820,-15.625,-39.062,-89.844,0.000,0
1644802104.949,-100.586,-7.324,-35.156,-94.727,0.000,0
1644802104.953,-118.164,-6.836,-38.574,-86.426,0.000,0
1644802104.957,-119.629,-8.301,-39.551,-97.168,0.000,0
1644802104.961,-98.633,-2.930,-33.203,-116.211,0.000,0
1644802104.965,-85.938,-1.465,-29.785,-102.051,0.000,0
1644802104.969,-92.773,-5.371,-34.668,-89.844,0.000,0
1644802104.972,-105.469,-4.395,-47.852,-93.750,0.000,0
1644802104.976,-131.348,3.906,-46.875,-100.098,0.000,0
1644802104.980,-119.629,2.930,-41.992,-107.910,0.000,0
1644802104.984,-83.496,-0.488,-39.551,-106.445,0.000,0
1644802104.988,-85.938,-1.953,-41.992,-82.520,0.000,0
1644802104.992,-116.699,-6.836,-49.316,-79.590,0.000,0
1644802104.996,-138.672,-7.812,-47.852,-100.098,0.000,0
1644802105.000,-119.141,-4.883,-41.992,-105.469,0.000,0
1644802105.003,-98.633,-3.418,-36.621,-97.656,0.000,0
1644802105.007,-101.562,-4.395,-38.574,-83.496,0.000,0
1644802105.011,-110.352,-8.789,-48.828,-90.820,0.000,0
1644802105.015,-130.859,-13.184,-55.664,-105.469,0.000,0
1644802105.019,-124.512,-10.742,-50.293,-105.469,0.000,0
1644802105.023,-96.680,-5.859,-41.992,-100.098,0.000,0
1644802105.027,-87.402,-9.277,-40.039,-86.426,0.000,0
1644802105.031,-99.609,-11.230,-46.387,-77.148,0.000,0
1644802105.034,-125.977,-12.695,-52.246,-86.426,0.000,0
1644802105.038,-126.465,-11.719,-49.316,-108.887,0.000,0
1644802105.042,-99.609,-8.301,-48.340,-104.004,0.000,0
1644802105.046,-74.707,-9.766,-47.852,-74.219,0.000,0
1644802105.050,-93.750,-9.766,-49.805,-65.918,0.000,0
1644802105.054,-132.812,-10.742,-50.293,-81.543,0.000,0
1644802105.058,-126.465,-7.324,-50.781,-104.004,0.000,0
1644802105.062,-97.168,0.000,-45.410,-100.098,0.000,0
1644802105.065,-84.961,-0.488,-36.621,-76.172,0.000,0
1644802105.069,-91.309,0.488,-34.668,-69.824,0.000,0
1644802105.073,-112.305,-3.418,-39.062,-81.055,0.000,0
1644802105.077,-103.516,-11.719,-44.922,-99.609,0.000,0
1644802105.081,-75.684,-8.301,-40.039,-89.844,0.000,0
1644802105.085,-77.637,-1.465,-38.086,-83.984,0.000,0
1644802105.089,-104.980,-7.324,-52.734,-91.797,0.000,0
1644802105.093,-125.977,-12.695,-54.688,-85.938,0.000,0
1644802105.096,-125.000,-12.695,-46.387,-102.051,0.000,0
1644802105.100,-109.375,-12.695,-42.969,-106.445,0.000,0
1644802105.105,-87.402,-11.719,-41.016,-95.215,0.000,0
1644802105.108,-91.797,-10.254,-42.969,-88.379,0.000,0
1644802105.112,-115.234,-5.859,-42.480,-83.984,0.000,0
1644802105.116,-124.023,-14.160,-42.480,-105.469,0.000,0
1644802105.120,-103.516,-22.949,-37.598,-113.281,0.000,0
1644802105.124,-90.820,-20.508,-34.180,-80.566,0.000,0
1644802105.128,-102.051,-17.090,-42.969,-78.613,0.000,0
1644802105.132,-119.629,-19.531,-49.316,-104.492,0.000,0
1644802105.136,-121.094,-23.926,-44.434,-96.191,0.000,0
1644802105.139,-108.398,-20.996,-38.086,-99.121,0.000,0
1644802105.143,-96.680,-14.648,-36.621,-112.305,0.000,0
1644802105.147,-91.797,-13.672,-42.480,-92.773,0.000,0
1644802105.151,-118.652,-20.020,-52.246,-81.543,0.000,0
1644802105.155,-136.719,-24.414,-55.176,-104.492,0.000,0
1644802105.159,-113.281,-20.996,-43.457,-112.793,0.000,0
1644802105.163,-82.520,-15.137,-31.738,-89.844,0.000,0
1644802105.166,-79.590,-9.766,-35.645,-89.355,0.000,0
1644802105.170,-103.516,-8.789,-42.969,-98.145,0.000,0
1644802105.174,-119.141,-12.207,-48.340,-99.121,0.000,0
1644802105.178,-115.234,-18.555,-50.293,-104.980,0.000,0
1644802105.182,-94.238,-17.578,-40.527,-104.004,0.000,0
1644802105.186,-94.727,-14.160,-38.086,-99.609,0.000,0
1644802105.190,-116.699,-21.973,-50.293,-88.379,0.000,0
1644802105.194,-125.000,-24.902,-52.734,-81.543,0.000,0
1644802105.197,-104.004,-20.996,-42.480,-94.238,0.000,0
1644802105.201,-95.703,-17.090,-41.504,-108.887,0.000,0
1644802105.205,-91.797,-15.137,-51.270,-107.910,0.000,0
1644802105.209,-95.215,-18.555,-48.828,-96.191,0.000,0
1644802105.213,-120.605,-24.414,-49.805,-88.379,0.000,0
1644802105.217,-119.141,-22.949,-49.316,-109.375,0.000,0
1644802105.221,-96.680,-17.090,-33.203,-114.746,0.000,0
1644802105.225,-85.449,-20.508,-31.250,-84.473,0.000,0
1644802105.228,-93.262,-24.414,-41.504,-64.941,0.000,0
1644802105.232,-121.094,-23.438,-43.457,-78.613,0.000,0
1644802105.236,-122.070,-21.484,-35.645,-97.656,0.000,0
1644802105.240,-83.008,-15.137,-35.156,-98.145,0.000,0
1644802105.244,-76.660,-10.742,-35.156,-69.824,0.000,0
1644802105.248,-94.238,-17.578,-37.598,-59.570,0.000,0
1644802105.252,-111.816,-28.320,-46.387,-80.566,0.000,0
1644802105.256,-118.652,-30.273,-44.434,-94.727,0.000,0
1644802105.259,-104.004,-18.066,-38.086,-101.562,0.000,0
1644802105.263,-93.750,-14.648,-37.598,-93.750,0.000,0
1644802105.267,-97.656,-21.484,-41.504,-81.055,0.000,0
1644802105.271,-113.770,-29.785,-45.898,-65.918,0.000,0
1644802105.275,-116.699,-24.902,-44.922,-83.008,0.000,0
1644802105.279,-102.539,-15.625,-35.645,-105.469,0.000,0
1644802105.283,-81.055,-17.090,-36.621,-78.125,0.000,0
1644802105.287,-93.262,-21.484,-40.527,-60.547,0.000,0
1644802105.290,-121.094,-19.531,-41.016,-80.566,0.000,0
1644802105.294,-121.582,-22.949,-45.410,-100.586,0.000,0
1644802105.298,-98.145,-23.438,-44.922,-97.168,0.000,0
1644802105.302,-78.125,-20.020,-43.457,-68.359,0.000,0
1644802105.306,-77.148,-19.043,-46.387,-72.266,0.000,0
1644802105.310,-109.863,-17.578,-51.758,-85.938,0.000,0
1644802105.314,-125.977,-22.949,-46.875,-85.938,0.000,0
1644802105.317,-101.562,-25.879,-38.086,-98.145,0.000,0
1644802105.321,-84.961,-17.090,-38.574,-104.492,0.000,0
1644802105.325,-78.613,-13.184,-43.945,-83.008,0.000,0
1644802105.329,-91.309,-24.902,-54.688,-57.617,0.000,0
1644802105.333,-121.582,-30.762,-57.617,-83.984,0.000,0
1644802105.337,-109.375,-27.344,-54.199,-126.465,0.000,0
1644802105.341,-90.820,-22.461,-52.246,-116.211,0.000,0
1644802105.344,-98.633,-15.625,-47.363,-88.867,0.000,0
1644802105.348,-102.539,-15.137,-44.434,-84.473,0.000,0
1644802105.352,-119.141,-15.137,-39.062,-91.797,0.000,0
1644802105.356,-121.582,-23.926,-42.969,-98.633,0.000,0
1644802105.360,-91.797,-24.414,-51.758,-86.426,0.000,0
1644802105.364,-78.613,-20.996,-52.246,-92.285,0.000,0
1644802105.368,-99.121,-19.043,-53.223,-101.074,0.000,0
1644802105.372,-133.301,-24.902,-56.152,-83.496,0.000,0
1644802105.375,-127.930,-26.367,-53.711,-98.633,0.000,0
1644802105.379,-89.844,-13.184,-44.922,-111.328,0.000,0
1644802105.383,-81.055,-11.230,-39.551,-99.609,0.000,0
1644802105.387,-100.586,-20.508,-40.039,-84.961,0.000,0
1644802105.391,-117.188,-23.438,-44.922,-88.867,0.000,0
1644802105.395,-117.188,-20.508,-44.434,-106.934,0.000,0
1644802105.399,-102.539,-20.020,-35.645,-101.562,0.000,0
1644802105.403,-84.961,-22.461,-45.410,-83.496,0.000,0
1644802105.407,-94.238,-26.367,-56.152,-75.684,0.000,0
1644802105.410,-125.000,-28.809,-56.152,-85.449,0.000,0
1644802105.414,-122.559,-23.926,-50.781,-100.586,0.000,0
1644802105.418,-95.703,-20.020,-42.969,-103.516,0.000,0
1644802105.422,-88.867,-21.484,-38.574,-95.703,0.000,0
1644802105.426,-95.215,-20.508,-40.527,-87.891,0.000,0
1644802105.430,-111.816,-20.020,-49.316,-84.961,0.000,0
1644802105.434,-121.094,-21.973,-51.270,-107.422,0.000,0
1644802105.438,-108.398,-21.484,-47.363,-121.094,0.000,0
1644802105.442,-85.938,-14.160,-45.410,-102.539,0.000,0
1644802105.445,-93.262,-16.113,-43.457,-87.891,0.000,0
1644802105.449,-122.070,-21.973,-47.363,-86.914,0.000,0
1644802105.453,-133.301,-24.414,-47.852,-93.262,0.000,0
1644802105.457,-111.328,-20.508,-41.016,-103.516,0.000,0
1644802105.461,-87.402,-12.695,-42.480,-106.445,0.000,0
1644802105.465,-78.125,-15.625,-46.875,-85.449,0.000,0
1644802105.469,-87.891,-13.184,-38.086,-71.289,0.000,0
1644802105.473,-126.465,-11.719,-37.598,-96.191,0.000,0
1644802105.476,-117.188,-17.090,-40.527,-112.305,0.000,0
1644802105.480,-89.844,-15.137,-43.457,-93.750,0.000,0
1644802105.484,-102.051,-15.625,-44.922,-89.844,0.000,0
1644802105.488,-122.070,-19.531,-42.969,-89.844,0.000,0
1644802105.492,-132.812,-21.484,-45.898,-104.980,0.000,0
1644802105.496,-102.051,-19.531,-46.387,-111.328,0.000,0
1644802105.500,-87.891,-14.160,-37.598,-98.633,0.000,0
1644802105.504,-92.773,-5.371,-40.039,-89.355,0.000,0
1644802105.507,-96.191,-5.859,-47.852,-73.730,0.000,0
1644802105.511,-117.188,-15.137,-45.898,-78.613,0.000,0
1644802105.515,-113.281,-14.160,-35.645,-99.121,0.000,0
1644802105.519,-93.750,-13.672,-31.250,-96.191,0.000,0
1644802105.523,-95.215,-16.602,-38.574,-87.891,0.000,0
1644802105.527,-100.098,-19.531,-49.316,-84.961,0.000,0
1644802105.531,-125.488,-18.555,-53.223,-94.727,0.000,0
1644802105.535,-139.160,-21.484,-47.363,-110.840,0.000,0
1644802105.539,-108.887,-17.578,-38.574,-107.910,0.000,0
1644802105.542,-93.262,-12.695,-39.062,-94.238,0.000,0
1644802105.546,-103.027,-14.648,-46.387,-89.355,0.000,0
1644802105.550,-124.512,-16.602,-47.363,-90.332,0.000,0
1644802105.554,-120.605,-20.508,-40.039,-106.445,0.000,0
1644802105.558,-97.168,-19.043,-36.621,-117.676,0.000,0
1644802105.562,-100.098,-16.113,-43.945,-105.469,0.000,0
1644802105.566,-102.051,-11.230,-48.340,-93.750,0.000,0
1644802105.570,-116.699,-10.254,-46.875,-92.773,0.000,0
1644802105.573,-139.648,-14.160,-45.410,-104.492,0.000,0
1644802105.577,-114.258,-12.207,-44.922,-104.980,0.000,0
1644802105.581,-83.984,-10.254,-41.504,-103.027,0.000,0
1644802105.585,-104.004,-13.184,-36.133,-98.145,0.000,0
1644802105.589,-128.418,-19.531,-46.875,-83.984,0.000,0
1644802105.593,-123.047,-22.949,-54.199,-106.934,0.000,0
1644802105.597,-98.145,-20.508,-41.016,-117.676,0.000,0
1644802105.601,-82.031,-14.160,-34.180,-86.914,0.000,0
1644802105.604,-90.820,-3.906,-38.574,-75.684,0.000,0
1644802105.608,-111.328,-9.277,-42.969,-77.637,0.000,0
1644802105.612,-122.559,-20.996,-45.410,-88.867,0.000,0
1644802105.616,-100.586,-18.066,-39.551,-102.539,0.000,0
1644802105.620,-93.262,-11.719,-34.180,-95.215,0.000,0
1644802105.624,-105.469,-10.254,-41.504,-81.055,0.000,0
1644802105.628,-119.141,-15.625,-45.898,-77.148,0.000,0
1644802105.632,-122.559,-24.414,-54.199,-95.703,0.000,0
1644802105.635,-102.051,-24.414,-51.270,-108.398,0.000,0
1644802105.639,-85.449,-18.066,-40.527,-85.449,0.000,0
1644802105.643,-83.984,-17.090,-35.156,-64.453,0.000,0
1644802105.647,-111.816,-22.461,-40.039,-76.172,0.000,0
1644802105.651,-122.070,-25.391,-49.316,-103.027,0.000,0
1644802105.655,-105.957,-25.391,-48.340,-119.141,0.000,0
1644802105.659,-98.145,-25.391,-49.316,-107.422,0.000,0
1644802105.663,-96.680,-23.926,-49.316,-89.844,0.000,0
1644802105.667,-115.723,-21.484,-47.363,-80.566,0.000,0
1644802105.670,-138.184,-25.879,-50.781,-82.520,0.000,0
1644802105.674,-125.977,-24.414,-45.898,-97.656,0.000,0
1644802105.678,-96.191,-20.508,-37.109,-100.586,0.000,0
1644802105.682,-86.914,-24.902,-35.156,-80.566,0.000,0
1644802105.686,-99.609,-34.180,-42.480,-69.824,0.000,0
1644802105.690,-130.859,-39.062,-46.875,-79.102,0.000,0
1644802105.694,-136.719,-27.344,-42.969,-101.074,0.000,0
1644802105.698,-103.027,-20.508,-42.969,-98.145,0.000,0
1644802105.701,-85.938,-21.484,-42.480,-91.797,0.000,0
1644802105.705,-103.516,-18.555,-40.039,-92.773,0.000,1
1644802105.710,-129.883,-19.043,-42.480,-101.562,0.000,0
1644802105.714,-123.535,-20.020,-44.434,-107.910,0.000,0
1644802105.717,-95.215,-16.602,-38.086,-107.910,0.000,0
1644802105.721,-85.449,-9.277,-35.156,-90.332,0.000,0
1644802105.725,-102.539,-7.324,-38.574,-71.777,0.000,0
1644802105.729,-115.723,-16.602,-47.363,-67.383,0.000,0
1644802105.733,-108.398,-18.555,-50.781,-79.590,0.000,0
1644802105.737,-94.727,-11.719,-46.875,-113.770,0.000,0
1644802105.741,-97.168,-8.789,-44.922,-118.652,0.000,0
1644802105.745,-103.516,-15.625,-47.852,-97.656,0.000,0
1644802105.748,-107.422,-20.996,-44.434,-83.496,0.000,0
1644802105.752,-120.117,-14.160,-42.969,-97.656,0.000,0
1644802105.756,-104.004,-9.766,-40.039,-103.516,0.000,0
1644802105.760,-77.637,-9.766,-31.738,-85.449,0.000,0
1644802105.764,-90.820,-10.742,-36.621,-70.312,0.000,0
1644802105.768,-117.188,-16.602,-46.387,-79.590,0.000,0
1644802105.772,-127.930,-20.508,-41.504,-96.680,0.000,0
1644802105.776,-117.676,-16.602,-34.180,-91.309,0.000,0
1644802105.780,-93.262,-12.695,-35.645,-93.262,0.000,0
1644802105.783,-91.797,-13.184,-39.551,-93.750,0.000,0
1644802105.787,-115.723,-19.043,-41.016,-90.820,0.000,0
1644802105.791,-129.883,-18.555,-41.504,-92.773,0.000,0
1644802105.795,-114.258,-11.719,-41.992,-98.145,0.000,0
1644802105.799,-92.773,-4.883,-36.621,-91.309,0.000,0
1644802105.803,-93.750,-3.906,-31.250,-80.078,0.000,0
1644802105.807,-104.004,-14.160,-42.969,-74.707,0.000,0
1644802105.811,-119.141,-17.090,-47.363,-89.355,0.000,0
1644802105.815,-125.000,-14.648,-40.527,-119.141,0.000,0
1644802105.818,-94.727,-14.160,-39.062,-97.656,0.000,0
1644802105.822,-83.496,-8.301,-36.133,-69.336,0.000,0
1644802105.826,-113.770,-11.719,-36.621,-76.172,0.000,0
1644802105.830,-130.371,-13.184,-41.016,-101.074,0.000,0
1644802105.834,-117.676,-6.836,-39.062,-113.281,0.000,0
1644802105.838,-85.938,-5.859,-37.109,-82.520,0.000,0
1644802105.842,-76.660,-6.348,-37.109,-85.938,0.000,0
1644802105.846,-104.980,-8.301,-34.668,-90.820,0.000,0
1644802105.850,-135.742,-12.695,-41.016,-78.125,0.000,0
1644802105.854,-130.371,-13.672,-44.434,-98.145,0.000,0
1644802105.858,-108.887,-9.766,-41.504,-99.609,0.000,0
1644802105.861,-103.027,-6.836,-34.180,-85.938,0.000,0
1644802105.865,-104.492,-7.324,-29.297,-79.102,0.000,0
1644802105.869,-120.117,-8.789,-36.133,-81.543,0.000,0
1644802105.873,-124.023,-10.254,-41.016,-104.492,0.000,0
1644802105.877,-94.727,-7.812,-41.504,-104.004,0.000,0
1644802105.881,-74.707,-12.207,-42.969,-87.402,0.000,0
1644802105.885,-91.309,-16.113,-38.574,-74.707,0.000,0
1644802105.889,-117.188,-10.254,-39.551,-78.125,0.000,0
1644802105.892,-125.977,-9.277,-42.969,-86.914,0.000,0
1644802105.896,-99.609,-9.277,-31.738,-87.402,0.000,0
1644802105.900,-73.242,-5.371,-25.879,-83.008,0.000,0
1644802105.904,-98.145,-3.906,-33.203,-80.566,0.000,0
1644802105.908,-131.348,-11.719,-36.621,-87.402,0.000,0
1644802105.912,-120.605,-22.461,-41.016,-100.098,0.000,0
1644802105.916,-100.098,-16.602,-34.668,-104.004,0.000,0
1644802105.920,-84.961,-2.441,-21.484,-89.355,0.000,0
1644802105.924,-83.496,-5.859,-28.809,-59.570,0.000,0
1644802105.927,-121.582,-14.648,-42.480,-66.895,0.000,0
1644802105.931,-132.324,-14.648,-45.410,-97.656,0.000,0
1644802105.935,-100.586,-7.324,-39.551,-95.215,0.000,0
1644802105.939,-82.520,-6.348,-40.527,-92.773,0.000,0
1644802105.943,-82.031,-10.742,-39.062,-77.637,0.000,0
1644802105.947,-104.492,-4.883,-35.156,-75.684,0.000,0
1644802105.951,-127.441,-7.812,-38.574,-94.238,0.000,0
1644802105.955,-93.262,-9.277,-34.180,-94.238,0.000,0
1644802105.958,-69.824,-3.906,-29.297,-79.102,0.000,0
1644802105.962,-88.867,-1.465,-27.832,-71.777,0.000,0
1644802105.966,-105.957,-4.395,-38.086,-70.312,0.000,0
1644802105.970,-118.164,-18.555,-50.781,-90.820,0.000,0
1644802105.974,-108.887,-21.484,-50.781,-103.516,0.000,0
1644802105.978,-90.820,-7.812,-42.480,-94.238,0.000,0
1644802105.982,-83.496,-6.836,-35.156,-76.172,0.000,0
1644802105.986,-99.609,-19.043,-40.039,-76.172,0.000,0
1644802105.989,-125.977,-24.902,-46.875,-90.332,0.000,0
1644802105.993,-114.258,-20.020,-40.527,-102.051,0.000,0
1644802105.997,-88.379,-17.090,-35.645,-106.445,0.000,0
1644802106.001,-94.238,-21.973,-49.316,-83.984,0.000,0
1644802106.005,-113.770,-24.414,-54.688,-72.754,0.000,0
1644802106.009,-118.164,-21.484,-51.758,-83.496,0.000,0
1644802106.013,-112.305,-25.391,-57.129,-100.586,0.000,0
1644802106.017,-96.191,-28.320,-56.641,-89.844,0.000,0
1644802106.020,-84.473,-20.020,-51.758,-84.473,0.000,0
1644802106.024,-101.562,-22.461,-52.734,-87.891,0.000,0
1644802106.028,-130.371,-32.715,-53.223,-93.750,0.000,0
1644802106.032,-127.930,-28.809,-49.805,-110.840,0.000,0
1644802106.036,-99.609,-21.973,-45.410,-105.957,0.000,0
1644802106.040,-94.727,-19.043,-42.969,-93.262,0.000,0
1644802106.044,-103.027,-13.672,-44.434,-83.496,0.000,0
1644802106.048,-121.094,-16.602,-48.828,-93.262,0.000,0
1644802106.051,-121.094,-17.578,-45.410,-103.027,0.000,0
1644802106.055,-92.285,-11.719,-38.086,-87.891,0.000,0
1644802106.059,-76.660,-15.137,-35.645,-69.336,0.000,0
1644802106.063,-85.449,-14.160,-32.715,-57.617,0.000,0
1644802106.067,-124.512,-12.695,-35.645,-72.754,0.000,0
1644802106.071,-136.230,-14.160,-42.969,-86.914,0.000,0
1644802106.075,-108.398,-12.695,-40.039,-92.285,0.000,0
1644802106.079,-96.191,-15.137,-32.227,-78.613,0.000,0
1644802106.083,-109.863,-18.066,-31.250,-66.406,0.000,0
1644802106.087,-128.418,-18.555,-38.574,-76.172,0.000,0
1644802106.090,-129.883,-19.043,-43.457,-90.332,0.000,0
1644802106.094,-104.004,-17.090,-39.062,-95.703,0.000,0
1644802106.098,-84.473,-13.672,-31.250,-87.891,0.000,0
1644802106.102,-95.215,-19.043,-41.992,-79.590,0.000,0
1644802106.106,-113.770,-23.438,-49.805,-55.176,0.000,0
1644802106.110,-123.535,-20.508,-51.270,-76.660,0.000,0
1644802106.114,-126.953,-17.578,-52.246,-113.281,0.000,0
1644802106.118,-106.934,-15.137,-45.410,-91.797,0.000,0
1644802106.121,-92.285,-13.184,-42.480,-78.613,0.000,0
1644802106.125,-112.793,-15.625,-49.316,-85.938,0.000,0
1644802106.129,-136.719,-17.578,-55.176,-88.867,0.000,0
1644802106.133,-134.277,-20.996,-58.594,-100.098,0.000,0
1644802106.137,-106.445,-16.602,-55.176,-103.516,0.000,0
1644802106.141,-97.656,-10.254,-52.734,-89.844,0.000,0
1644802106.145,-115.723,-19.531,-60.059,-82.520,0.000,0
1644802106.149,-129.395,-25.879,-61.035,-90.820,0.000,0
1644802106.153,-126.953,-21.973,-59.570,-104.980,0.000,0
1644802106.156,-102.539,-19.043,-55.176,-104.492,0.000,0
1644802106.160,-87.891,-18.066,-43.457,-99.609,0.000,0
1644802106.164,-99.609,-23.926,-47.852,-91.309,0.000,0
1644802106.168,-136.230,-33.691,-64.453,-89.355,0.000,0
1644802106.172,-149.902,-29.297,-60.059,-113.770,0.000,0
1644802106.176,-111.816,-21.484,-47.363,-104.004,0.000,0
1644802106.180,-91.797,-18.066,-48.340,-86.914,0.000,0
1644802106.184,-106.934,-21.484,-53.711,-92.773,0.000,0
1644802106.188,-126.465,-27.344,-53.223,-96.680,0.000,0
1644802106.192,-128.418,-23.438,-51.270,-104.492,0.000,0
1644802106.195,-107.910,-16.602,-47.363,-98.633,0.000,0
1644802106.199,-90.820,-14.648,-44.922,-82.031,0.000,0
1644802106.203,-98.145,-17.090,-43.457,-82.520,0.000,0
1644802106.207,-133.301,-22.461,-50.781,-97.656,0.000,0
1644802106.211,-124.023,-24.902,-53.711,-112.305,0.000,0
1644802106.215,-90.820,-14.160,-43.457,-115.234,0.000,0
1644802106.219,-95.215,-9.766,-41.992,-111.816,0.000,0
1644802106.223,-104.492,-18.066,-45.410,-101.562,0.000,0
1644802106.227,-123.047,-23.438,-45.898,-98.145,0.000,0
1644802106.230,-134.766,-23.926,-49.316,-106.934,0.000,0
1644802106.234,-107.910,-15.137,-46.875,-110.352,0.000,0
1644802106.238,-85.938,-18.066,-39.551,-84.473,0.000,0
1644802106.242,-89.355,-19.043,-38.574,-72.754,0.000,0
1644802106.246,-115.234,-16.113,-46.875,-95.215,0.000,0
1644802106.250,-132.812,-23.926,-54.199,-122.559,0.000,0
1644802106.254,-114.258,-25.879,-47.363,-119.629,0.000,0
1644802106.258,-84.961,-17.578,-38.574,-89.844,0.000,0
1644802106.261,-89.844,-9.766,-41.992,-84.473,0.000,0
1644802106.265,-122.559,-15.137,-44.922,-75.195,0.000,0
1644802106.269,-129.883,-23.926,-43.945,-81.543,0.000,0
1644802106.273,-112.305,-22.461,-37.598,-110.840,0.000,0
1644802106.277,-94.727,-17.578,-37.598,-104.004,0.000,0
1644802106.281,-90.820,-12.695,-42.480,-81.055,0.000,0
1644802106.285,-105.957,-15.625,-41.992,-79.590,0.000,0
1644802106.289,-118.652,-24.414,-49.316,-98.145,0.000,0
1644802106.292,-107.910,-20.508,-45.898,-114.258,0.000,0
1644802106.296,-92.773,-10.254,-34.668,-96.191,0.000,0
1644802106.300,-87.891,-12.695,-33.203,-72.266,0.000,0
1644802106.304,-97.168,-19.531,-44.922,-77.148,0.000,0
1644802106.308,-112.793,-14.648,-49.805,-80.566,0.000,0
1644802106.312,-111.328,-9.766,-41.504,-83.496,0.000,0
1644802106.316,-86.914,-9.277,-32.227,-88.867,0.000,0
1644802106.320,-75.684,-10.254,-31.738,-82.031,0.000,0
1644802106.324,-98.145,-9.766,-38.574,-83.984,0.000,0
1644802106.327,-117.676,-14.648,-38.086,-88.379,0.000,0
1644802106.331,-107.910,-10.742,-37.598,-99.121,0.000,0
1644802106.335,-91.309,-7.324,-42.969,-94.238,0.000,0
1644802106.339,-79.590,-10.254,-41.992,-76.660,0.000,0
1644802106.343,-89.844,-9.277,-41.504,-66.895,0.000,0
1644802106.347,-113.281,-8.301,-46.387,-71.289,0.000,0
1644802106.351,-102.539,-7.324,-43.457,-89.355,0.000,0
1644802106.355,-88.379,-9.277,-40.039,-99.609,0.000,0
1644802106.358,-85.938,-16.113,-42.480,-80.078,0.000,0
1644802106.362,-99.121,-20.996,-44.434,-72.754,0.000,0
1644802106.366,-119.629,-18.555,-41.016,-78.125,0.000,0
1644802106.370,-106.934,-18.555,-35.645,-81.543,0.000,0
1644802106.374,-100.586,-19.531,-38.086,-97.656,0.000,0
1644802106.378,-107.910,-18.555,-41.016,-96.191,0.000,0
1644802106.382,-102.051,-25.391,-42.969,-76.172,0.000,0
1644802106.386,-114.746,-26.855,-43.945,-70.312,0.000,0
1644802106.389,-117.188,-22.949,-40.039,-83.496,0.000,0
1644802106.393,-95.703,-17.578,-35.645,-91.797,0.000,0
1644802106.397,-81.055,-12.695,-35.156,-73.730,0.000,0
1644802106.401,-83.496,-14.160,-32.715,-58.594,0.000,0
1644802106.405,-107.910,-14.160,-29.297,-62.988,0.000,0
1644802106.409,-109.375,-10.254,-26.367,-72.266,0.000,0
1644802106.413,-85.449,-9.766,-27.344,-89.355,0.000,0
1644802106.417,-91.309,-14.160,-36.133,-79.102,0.000,0
1644802106.421,-95.703,-13.672,-40.527,-62.012,0.000,0
1644802106.425,-111.816,-19.043,-43.457,-69.824,0.000,0
1644802106.429,-140.625,-20.020,-54.199,-84.961,0.000,0
1644802106.432,-117.188,-20.020,-51.758,-84.473,0.000,0
1644802106.436,-92.285,-22.949,-41.992,-71.289,0.000,0
1644802106.440,-95.215,-13.672,-41.992,-73.242,0.000,0
