timestamps,TP9,AF7,AF8,TP10,Right AUX, Marker
1639023044.978,-65.918,-31.250,-15.625,-187.500,0.000,0
1639023044.982,-40.527,-17.578,-7.812,31.250,0.000,0
1639023044.986,-34.668,-15.625,-15.625,150.391,0.000,0
1639023044.990,-63.477,-21.484,-25.879,6.836,0.000,0
1639023044.994,-87.402,-25.879,-29.785,-207.520,0.000,0
1639023044.997,-61.523,-25.391,-29.785,-186.035,0.000,0
1639023045.001,-30.762,-20.020,-20.508,30.273,0.000,0
1639023045.005,-35.645,-11.719,-14.648,165.527,0.000,0
1639023045.009,-75.684,-10.254,-20.020,49.805,0.000,0
1639023045.013,-90.820,-11.719,-22.949,-185.059,0.000,0
1639023045.017,-57.129,-10.742,-19.531,-222.168,0.000,0
1639023045.020,-2.441,-20.508,-20.020,11.719,0.000,0
1639023045.025,-22.949,-22.949,-18.066,180.664,0.000,0
1639023045.029,-77.637,-10.742,-14.648,63.477,0.000,0
1639023045.033,-91.797,-18.066,-26.367,-155.762,0.000,0
1639023045.037,-71.777,-21.484,-29.297,-225.586,0.000,0
1639023045.041,-27.832,-11.230,-16.113,-48.340,0.000,0
1639023045.045,-25.879,-6.348,-8.789,147.461,0.000,0
1639023045.049,-55.664,-8.301,-14.648,109.375,0.000,0
1639023045.052,-73.730,-14.160,-24.414,-126.953,0.000,0
1639023045.056,-70.801,-13.184,-21.973,-253.418,0.000,0
1639023045.060,-30.273,-9.277,-16.602,-85.938,0.000,0
1639023045.064,-15.625,-6.836,-15.137,134.277,0.000,0
1639023045.068,-56.641,-3.418,-15.625,119.629,0.000,0
1639023045.076,-87.891,-7.812,-26.367,-94.727,0.000,0
1639023045.080,-73.242,-17.090,-37.598,-229.492,0.000,0
1639023045.084,-29.785,-18.066,-32.227,-110.840,0.000,0
1639023045.088,-31.738,-17.090,-18.555,110.840,0.000,0
1639023045.092,-60.547,-13.184,-16.113,133.301,0.000,0
1639023045.096,-70.312,-20.508,-31.738,-74.219,0.000,0
1639023045.100,-44.922,-32.715,-44.922,-204.102,0.000,0
1639023045.104,-28.809,-29.785,-41.992,-109.863,0.000,0
1639023045.108,-41.504,-20.508,-26.855,75.684,0.000,0
1639023045.112,-55.664,-20.996,-28.320,133.301,0.000,0
1639023045.116,-85.938,-25.879,-32.227,-46.387,0.000,0
1639023045.120,-90.332,-24.902,-30.762,-229.980,0.000,0
1639023045.132,-61.523,-18.555,-30.762,-155.762,0.000,0
1639023045.137,-34.180,-16.113,-18.066,79.590,0.000,0
1639023045.141,-53.711,-20.020,-17.090,150.391,0.000,0
1639023045.145,-82.031,-24.902,-31.250,-32.227,0.000,0
1639023045.149,-86.426,-24.414,-35.156,-228.516,0.000,0
1639023045.153,-62.012,-26.367,-34.180,-184.570,0.000,0
1639023045.158,-31.250,-27.832,-30.273,41.016,0.000,0
1639023045.162,-47.852,-29.297,-29.785,155.273,0.000,0
1639023045.166,-90.332,-27.344,-33.691,17.090,0.000,0
1639023045.170,-105.957,-28.809,-37.109,-200.195,0.000,0
1639023045.174,-75.195,-35.645,-40.527,-210.449,0.000,0
1639023045.178,-49.316,-30.762,-34.180,4.395,0.000,0
1639023045.193,-62.988,-24.414,-26.855,148.926,0.000,0
1639023045.198,-70.801,-35.645,-33.203,55.664,0.000,0
1639023045.202,-77.637,-47.852,-47.363,-158.203,0.000,0
1639023045.206,-82.031,-40.039,-41.016,-234.863,0.000,0
1639023045.211,-49.805,-31.250,-28.320,-35.156,0.000,0
1639023045.215,-37.598,-26.855,-30.273,150.391,0.000,0
1639023045.219,-76.172,-28.320,-30.273,61.035,0.000,0
1639023045.224,-103.027,-30.273,-32.715,-168.945,0.000,0
1639023045.228,-80.078,-32.715,-36.133,-242.676,0.000,0
1639023045.232,-41.992,-32.715,-27.344,-62.012,0.000,0
1639023045.237,-42.969,-29.297,-18.555,134.277,0.000,0
1639023045.241,-71.777,-33.203,-28.809,90.820,0.000,0
1639023045.258,-90.332,-40.039,-42.480,-137.695,0.000,0
1639023045.262,-81.543,-38.086,-41.016,-249.023,0.000,1
1639023045.267,-44.434,-32.227,-36.621,-94.238,0.000,0
1639023045.271,-29.785,-33.203,-29.297,116.699,0.000,0
1639023045.276,-60.059,-36.621,-33.691,96.191,0.000,0
1639023045.280,-80.078,-40.527,-44.434,-117.188,0.000,0
1639023045.285,-60.547,-41.992,-47.363,-239.746,0.000,0
1639023045.289,-35.645,-38.574,-41.016,-118.164,0.000,0
1639023045.294,-21.484,-38.086,-32.227,114.258,0.000,0
1639023045.298,-40.527,-45.410,-32.227,159.668,0.000,0
1639023045.303,-86.426,-42.969,-36.621,-68.359,0.000,0
1639023045.307,-83.984,-36.621,-35.645,-250.000,0.000,0
1639023045.325,-48.828,-31.738,-30.273,-156.250,0.000,0
1639023045.329,-31.738,-27.344,-25.879,69.336,0.000,0
1639023045.334,-62.988,-32.227,-27.832,137.207,0.000,0
1639023045.339,-92.773,-37.109,-35.156,-36.133,0.000,0
1639023045.343,-95.215,-37.598,-35.645,-214.844,0.000,0
1639023045.348,-66.895,-38.574,-31.250,-155.762,0.000,0
1639023045.353,-46.387,-37.598,-28.320,55.664,0.000,0
1639023045.357,-63.477,-38.574,-27.344,143.555,0.000,0
1639023045.362,-89.355,-37.109,-30.273,-14.648,0.000,0
1639023045.367,-91.797,-34.180,-34.180,-218.262,0.000,0
1639023045.371,-61.523,-32.715,-35.645,-185.547,0.000,0
1639023045.376,-51.758,-26.367,-30.762,28.809,0.000,0
1639023045.396,-74.219,-21.973,-24.414,148.438,0.000,0
1639023045.401,-94.727,-30.762,-31.738,28.809,0.000,0
1639023045.405,-107.422,-39.062,-41.504,-195.801,0.000,0
1639023045.410,-85.449,-37.109,-39.551,-221.191,0.000,0
1639023045.415,-20.508,-42.480,-38.574,29.297,0.000,0
1639023045.420,-43.457,-46.387,-35.156,181.152,0.000,0
1639023045.425,-101.074,-40.527,-37.109,57.617,0.000,0
1639023045.429,-103.027,-40.039,-43.945,-166.016,0.000,0
1639023045.434,-96.191,-34.668,-41.504,-233.887,0.000,0
1639023045.439,-64.941,-22.461,-30.273,-26.855,0.000,0
1639023045.444,-52.734,-19.531,-24.902,154.785,0.000,0
1639023045.449,-72.754,-27.344,-31.250,76.172,0.000,0
1639023045.461,-83.008,-33.691,-37.598,-139.160,0.000,0
1639023045.465,-83.008,-34.180,-41.016,-223.633,0.000,0
1639023045.470,-45.898,-29.785,-35.645,-65.918,0.000,0
1639023045.475,-36.621,-27.832,-29.297,139.648,0.000,0
1639023045.480,-81.055,-31.250,-36.621,74.219,0.000,0
1639023045.485,-88.379,-38.574,-52.246,-156.250,0.000,0
1639023045.490,-67.871,-40.039,-53.223,-223.633,0.000,0
1639023045.495,-46.875,-28.320,-40.039,-92.773,0.000,0
1639023045.500,-49.316,-21.484,-27.344,112.305,0.000,0
1639023045.505,-73.730,-29.785,-33.203,114.746,0.000,0
1639023045.509,-101.074,-37.598,-46.387,-105.957,0.000,0
1639023045.514,-83.496,-48.340,-54.688,-229.004,0.000,0
1639023045.520,-53.711,-50.781,-49.805,-113.770,0.000,0
1639023045.525,-62.500,-36.133,-39.062,69.824,0.000,0
1639023045.530,-80.566,-38.574,-43.457,108.887,0.000,0
1639023045.535,-95.215,-48.340,-57.617,-75.195,0.000,0
1639023045.539,-97.168,-46.875,-60.547,-246.582,0.000,0
1639023045.544,-65.430,-42.480,-52.734,-156.250,0.000,0
1639023045.549,-43.457,-39.551,-44.922,82.520,0.000,0
1639023045.554,-65.430,-36.621,-42.480,148.926,0.000,0
1639023045.559,-107.422,-36.621,-45.410,-53.223,0.000,0
1639023045.564,-112.305,-39.062,-41.992,-238.281,0.000,0
1639023045.569,-71.777,-38.574,-36.621,-175.781,0.000,0
1639023045.574,-47.363,-33.691,-33.203,54.688,0.000,0
1639023045.574,-63.477,-30.762,-28.320,155.273,0.000,0
1639023045.578,-92.773,-31.250,-30.273,-10.254,0.000,0
1639023045.583,-96.680,-35.156,-38.086,-219.238,0.000,0
1639023045.588,-69.824,-35.645,-38.574,-195.801,0.000,0
1639023045.593,-45.898,-27.344,-29.785,32.227,0.000,0
1639023045.598,-54.688,-31.738,-34.668,165.039,0.000,0
1639023045.603,-66.895,-48.828,-49.316,48.340,0.000,0
1639023045.608,-78.613,-50.781,-53.223,-180.664,0.000,0
1639023045.612,-78.613,-38.086,-45.898,-232.910,0.000,0
1639023045.617,-59.082,-30.762,-36.621,-24.902,0.000,0
1639023045.622,-64.453,-25.879,-31.250,140.625,0.000,0
1639023045.627,-93.262,-32.227,-41.016,39.551,0.000,0
1639023045.623,-108.398,-40.039,-48.340,-189.453,0.000,0
1639023045.627,-84.473,-40.527,-44.434,-236.816,0.000,0
1639023045.632,-49.316,-42.480,-44.922,-53.223,0.000,0
1639023045.637,-41.504,-40.039,-43.457,129.395,0.000,0
1639023045.642,-83.008,-41.504,-46.875,60.059,0.000,0
1639023045.647,-109.375,-49.805,-58.105,-165.039,0.000,0
1639023045.651,-80.078,-49.805,-58.105,-246.582,0.000,0
1639023045.656,-49.805,-43.457,-49.805,-92.285,0.000,0
1639023045.661,-61.035,-36.133,-40.527,101.074,0.000,0
1639023045.666,-88.379,-37.598,-41.992,82.520,0.000,0
1639023045.671,-107.422,-43.945,-48.340,-123.535,0.000,0
1639023045.675,-97.656,-45.410,-49.316,-249.512,0.000,0
1639023045.668,-59.570,-37.109,-42.969,-115.234,0.000,0
1639023045.672,-34.668,-34.668,-41.504,127.930,0.000,0
1639023045.677,-53.711,-41.992,-53.223,139.648,0.000,0
1639023045.682,-104.004,-35.645,-60.059,-128.418,0.000,0
1639023045.686,-100.586,-38.574,-63.477,-264.648,0.000,0
1639023045.691,-50.293,-41.504,-63.965,-126.953,0.000,0
1639023045.696,-36.133,-34.668,-56.152,83.496,0.000,0
1639023045.700,-62.988,-32.227,-50.781,125.977,0.000,0
1639023045.705,-94.238,-35.156,-56.152,-75.684,0.000,0
1639023045.710,-94.238,-30.762,-55.664,-251.953,0.000,0
1639023045.715,-54.688,-23.438,-47.363,-156.250,0.000,0
1639023045.719,-29.785,-20.020,-36.621,78.125,0.000,0
1639023045.709,-41.992,-17.090,-34.668,151.367,0.000,0
1639023045.713,-74.707,-20.996,-41.016,-27.344,0.000,0
1639023045.718,-80.078,-18.555,-38.574,-228.027,0.000,0
1639023045.723,-46.387,-16.113,-34.180,-174.805,0.000,0
1639023045.727,-23.438,-15.625,-31.250,60.059,0.000,0
1639023045.732,-37.598,-16.602,-35.645,156.738,0.000,0
1639023045.736,-71.289,-19.531,-39.551,10.254,0.000,0
1639023045.741,-81.055,-19.043,-42.480,-193.848,0.000,0
1639023045.746,-47.363,-16.602,-37.109,-178.223,0.000,0
1639023045.750,-21.484,-15.625,-26.367,38.574,0.000,0
1639023045.755,-49.316,-6.348,-18.555,159.180,0.000,0
1639023045.760,-74.707,-3.418,-24.414,31.250,0.000,0
1639023045.747,-65.430,-18.066,-39.062,-177.734,0.000,0
1639023045.751,-32.715,-21.484,-37.598,-175.293,0.000,0
1639023045.756,-24.414,-7.812,-22.949,17.578,0.000,0
1639023045.760,-34.668,-1.465,-21.484,155.762,0.000,0
1639023045.765,-45.410,-10.254,-30.273,77.637,0.000,0
1639023045.769,-61.035,-20.020,-35.645,-132.812,0.000,0
1639023045.774,-61.523,-9.766,-30.762,-225.586,0.000,0
1639023045.778,-35.156,4.395,-18.066,-46.387,0.000,0
1639023045.783,-15.137,-0.977,-17.578,173.340,0.000,0
1639023045.787,-36.133,-15.625,-25.391,127.930,0.000,0
1639023045.792,-98.633,-10.254,-30.762,-130.859,0.000,0
1639023045.796,-91.309,-0.977,-34.180,-234.863,0.000,0
1639023045.782,-27.832,-14.160,-40.039,-37.598,0.000,0
1639023045.786,-23.926,-14.160,-33.691,161.621,0.000,0
1639023045.791,-74.219,-0.977,-20.508,93.262,0.000,0
1639023045.795,-92.285,-2.441,-26.367,-128.418,0.000,0
1639023045.799,-60.547,-19.043,-41.016,-218.262,0.000,0
1639023045.804,-32.715,-14.648,-37.109,-89.355,0.000,0
1639023045.808,-35.645,7.812,-17.578,108.398,0.000,0
1639023045.813,-47.852,4.395,-12.207,145.996,0.000,0
1639023045.817,-61.523,-12.207,-22.949,-49.316,0.000,0
1639023045.822,-76.660,-8.301,-23.926,-220.703,0.000,0
1639023045.826,-62.012,3.418,-14.160,-139.648,0.000,0
1639023045.830,-20.020,1.953,-10.742,109.375,0.000,0
1639023045.818,-24.902,-7.324,-18.066,171.875,0.000,0
1639023045.822,-81.543,-5.859,-19.043,-51.758,0.000,0
1639023045.826,-86.914,0.000,-20.508,-242.188,0.000,0
1639023045.831,-44.922,-11.230,-29.297,-140.137,0.000,0
1639023045.835,-31.250,-14.648,-21.973,99.121,0.000,0
1639023045.839,-55.664,2.930,-13.672,149.414,0.000,0
1639023045.844,-77.637,6.836,-16.113,-23.926,0.000,0
1639023045.848,-66.406,0.977,-19.043,-197.754,0.000,0
1639023045.852,-40.527,4.883,-13.184,-160.645,0.000,0
1639023045.857,-33.691,9.277,-1.465,45.410,0.000,0
1639023045.861,-51.270,0.000,-4.395,148.926,0.000,0
1639023045.865,-83.984,-14.648,-17.578,11.230,0.000,0
1639023045.854,-95.215,-17.578,-22.461,-207.520,0.000,0
1639023045.858,-74.219,-10.254,-17.090,-210.938,0.000,0
1639023045.863,-41.992,-9.766,-7.324,17.578,0.000,0
1639023045.867,-36.621,-11.230,-1.953,153.320,0.000,0
1639023045.871,-74.219,-16.602,-11.230,29.297,0.000,0
1639023045.875,-91.309,-26.855,-25.879,-177.734,0.000,0
1639023045.880,-53.223,-27.832,-21.973,-192.383,0.000,0
1639023045.884,-19.043,-28.809,-13.184,1.953,0.000,0
1639023045.888,-46.875,-19.531,-9.766,144.531,0.000,0
1639023045.892,-90.820,-17.578,-13.672,37.109,0.000,0
1639023045.897,-86.914,-22.461,-19.043,-182.129,0.000,0
1639023045.901,-59.570,-20.020,-15.625,-234.863,0.000,0
1639023045.891,-43.945,-16.113,-8.301,-44.434,0.000,0
1639023045.895,-34.180,-19.531,-11.719,155.273,0.000,0
1639023045.899,-57.129,-23.926,-22.461,100.586,0.000,0
1639023045.904,-86.914,-25.391,-25.879,-146.484,0.000,0
1639023045.908,-68.359,-29.297,-22.949,-216.797,0.000,0
1639023045.912,-29.785,-26.367,-24.414,-28.809,0.000,0
1639023045.916,-16.602,-25.879,-21.484,164.062,0.000,0
1639023045.920,-43.457,-31.738,-19.043,145.020,0.000,0
1639023045.925,-88.379,-27.832,-20.996,-96.191,0.000,0
1639023045.929,-74.707,-24.902,-25.391,-229.980,0.000,0
1639023045.933,-38.086,-27.832,-20.996,-97.168,0.000,0
1639023045.937,-32.227,-22.949,-10.742,122.559,0.000,0
1639023045.928,-64.453,-22.461,-16.113,121.094,0.000,0
1639023045.933,-92.285,-32.227,-29.297,-86.914,0.000,0
1639023045.937,-77.148,-35.156,-32.715,-228.027,0.000,0
1639023045.941,-42.480,-28.809,-28.809,-124.512,0.000,0
1639023045.945,-23.926,-22.949,-28.320,103.516,0.000,0
1639023045.949,-35.156,-23.926,-28.320,163.086,0.000,0
1639023045.953,-61.523,-32.227,-36.621,-12.695,0.000,0
1639023045.957,-81.543,-29.297,-39.551,-206.055,0.000,0
1639023045.962,-56.641,-20.508,-26.855,-150.391,0.000,0
1639023045.966,-27.832,-23.926,-19.043,75.684,0.000,0
1639023045.970,-46.875,-25.879,-20.020,153.809,0.000,0
1639023045.974,-77.148,-24.414,-22.949,-20.996,0.000,0
1639023045.968,-78.613,-27.344,-31.250,-217.773,0.000,0
1639023045.972,-42.969,-27.344,-35.645,-164.062,0.000,0
1639023045.976,-17.578,-23.438,-24.414,60.547,0.000,0
1639023045.980,-32.227,-17.090,-17.090,163.086,0.000,0
1639023045.984,-59.082,-16.113,-23.926,34.668,0.000,0
1639023045.988,-60.547,-28.809,-35.156,-166.504,0.000,0
1639023045.992,-41.016,-28.809,-29.297,-179.688,0.000,0
1639023045.996,-20.508,-14.648,-13.672,25.391,0.000,0
1639023046.001,-30.762,-13.184,-14.160,172.852,0.000,0
1639023046.005,-54.199,-17.090,-21.484,72.754,0.000,0
1639023046.009,-64.941,-20.020,-21.973,-168.457,0.000,0
1639023046.013,-49.316,-17.090,-11.719,-222.168,0.000,0
1639023046.007,-20.020,-11.719,-7.812,-6.348,0.000,0
1639023046.011,-26.367,-13.672,-13.672,168.457,0.000,0
1639023046.016,-65.430,-14.648,-20.020,62.500,0.000,0
1639023046.020,-86.426,-13.672,-27.832,-175.293,0.000,0
1639023046.024,-54.688,-21.973,-35.156,-220.703,0.000,0
1639023046.028,-22.949,-25.391,-28.320,-27.832,0.000,0
1639023046.032,-44.434,-21.973,-22.461,155.273,0.000,0
1639023046.036,-79.590,-22.461,-27.832,96.191,0.000,0
1639023046.040,-85.449,-29.297,-38.086,-126.953,0.000,0
1639023046.044,-59.570,-29.785,-38.086,-212.891,0.000,0
1639023046.048,-34.668,-17.578,-26.367,-68.359,0.000,0
1639023046.052,-38.574,-6.836,-15.625,135.254,0.000,0
1639023046.047,-66.895,-10.742,-20.508,125.488,0.000,0
1639023046.051,-83.984,-16.113,-29.785,-104.004,0.000,0
1639023046.055,-69.824,-17.090,-31.250,-238.770,0.000,0
1639023046.060,-48.340,-19.531,-25.391,-99.121,0.000,0
1639023046.064,-24.902,-17.578,-15.137,133.301,0.000,0
1639023046.068,-39.551,-17.090,-23.926,156.738,0.000,0
1639023046.072,-89.355,-20.020,-30.762,-64.453,0.000,0
1639023046.076,-86.426,-21.973,-24.902,-231.934,0.000,0
1639023046.080,-26.855,-26.367,-25.391,-104.004,0.000,0
1639023046.084,-13.184,-23.438,-19.531,122.559,0.000,0
1639023046.088,-61.035,-14.160,-13.184,140.137,0.000,0
1639023046.092,-82.031,-18.555,-26.855,-38.086,0.000,0
1639023046.088,-77.148,-22.949,-34.668,-200.195,0.000,0
1639023046.092,-57.617,-20.020,-26.367,-141.602,0.000,0
1639023046.096,-33.203,-13.672,-13.672,82.031,0.000,0
1639023046.100,-31.738,-8.789,-8.301,181.641,0.000,0
1639023046.104,-62.500,-17.578,-18.555,14.160,0.000,0
1639023046.108,-76.660,-28.809,-34.180,-194.336,0.000,0
1639023046.112,-56.641,-25.391,-34.180,-167.969,0.000,0
1639023046.116,-28.320,-20.020,-24.902,54.199,0.000,0
1639023046.120,-39.551,-22.461,-19.531,183.594,0.000,0
1639023046.124,-89.844,-16.113,-18.066,29.297,0.000,0
1639023046.128,-93.750,-9.766,-21.973,-193.848,0.000,0
1639023046.132,-63.477,-14.648,-22.461,-184.570,0.000,0
1639023046.128,-35.645,-15.137,-18.555,28.809,0.000,0
1639023046.132,-44.434,-11.230,-21.484,162.109,0.000,0
1639023046.136,-71.777,-15.137,-26.367,46.387,0.000,0
1639023046.140,-76.660,-23.926,-34.180,-163.086,0.000,1
1639023046.144,-54.688,-23.926,-31.738,-188.477,0.000,0
1639023046.148,-25.391,-17.578,-21.973,4.395,0.000,0
1639023046.152,-32.715,-17.090,-22.949,164.551,0.000,0
1639023046.156,-51.270,-20.996,-30.762,110.352,0.000,0
1639023046.160,-71.289,-18.555,-34.668,-109.863,0.000,0
1639023046.164,-67.871,-10.254,-27.344,-217.285,0.000,0
1639023046.168,-30.273,-10.742,-25.391,-32.715,0.000,0
1639023046.172,-35.156,-9.766,-26.367,151.855,0.000,0
1639023046.169,-69.824,-8.789,-26.367,86.914,0.000,0
1639023046.173,-86.426,-10.254,-28.809,-140.137,0.000,0
1639023046.177,-61.523,-7.812,-28.809,-235.352,0.000,0
1639023046.181,-29.785,-1.465,-23.926,-70.312,0.000,0
1639023046.185,-25.391,5.859,-22.461,137.207,0.000,0
1639023046.189,-57.129,5.859,-26.855,125.488,0.000,0
1639023046.193,-80.566,5.371,-34.180,-84.961,0.000,0
1639023046.197,-65.430,3.418,-41.992,-200.195,0.000,0
1639023046.201,-37.109,14.160,-34.668,-90.332,0.000,0
1639023046.205,-30.762,27.832,-21.484,109.863,0.000,0
1639023046.209,-54.199,18.555,-26.855,139.648,0.000,0
1639023046.213,-71.289,12.207,-34.180,-64.453,0.000,0
1639023046.210,-72.266,19.531,-27.344,-226.562,0.000,0
1639023046.214,-50.293,20.508,-24.414,-131.836,0.000,0
1639023046.218,-19.043,23.926,-24.414,92.285,0.000,0
1639023046.222,-39.062,27.832,-22.949,145.508,0.000,0
1639023046.226,-72.754,29.297,-25.391,-33.203,0.000,0
1639023046.230,-62.012,28.320,-27.344,-204.590,0.000,0
1639023046.234,-29.297,20.020,-29.785,-112.305,0.000,0
1639023046.238,-24.414,25.391,-20.996,114.258,0.000,0
1639023046.242,-53.223,39.551,-9.277,153.320,0.000,0
1639023046.246,-74.219,25.391,-22.461,-21.973,0.000,0
1639023046.250,-77.637,17.090,-33.691,-211.914,0.000,0
1639023046.254,-47.852,28.809,-21.484,-166.992,0.000,0
1639023046.252,-16.113,30.762,-8.301,52.734,0.000,0
1639023046.256,-23.438,23.438,-11.719,165.039,0.000,0
1639023046.260,-60.547,15.137,-19.531,27.344,0.000,0
1639023046.263,-83.984,13.672,-23.926,-193.359,0.000,0
1639023046.267,-56.641,14.648,-22.461,-191.406,0.000,0
1639023046.271,-11.230,17.090,-16.113,31.250,0.000,0
1639023046.275,-6.836,15.625,-19.043,184.570,0.000,0
1639023046.279,-54.688,11.230,-27.344,61.523,0.000,0
1639023046.283,-93.750,10.742,-31.250,-191.406,0.000,0
1639023046.287,-69.824,6.836,-34.668,-221.191,0.000,0
1639023046.291,-35.156,3.418,-30.273,-10.742,0.000,0
1639023046.295,-42.969,0.977,-25.879,141.602,0.000,0
1639023046.294,-85.449,-2.441,-36.621,51.270,0.000,0
1639023046.298,-96.191,-10.254,-49.316,-165.039,0.000,0
1639023046.302,-85.938,-11.230,-48.340,-230.469,0.000,0
1639023046.306,-72.266,-6.836,-38.574,-64.941,0.000,0
1639023046.310,-68.848,-8.301,-34.180,119.629,0.000,0
1639023046.314,-77.148,-17.578,-48.828,88.379,0.000,0
1639023046.318,-95.703,-19.531,-55.664,-151.367,0.000,0
1639023046.322,-90.332,-5.859,-41.504,-263.184,0.000,0
1639023046.326,-53.223,-1.953,-38.574,-91.309,0.000,0
1639023046.330,-48.340,-4.883,-40.039,128.418,0.000,0
1639023046.333,-74.707,-2.930,-35.645,117.188,0.000,0
1639023046.337,-96.191,-3.418,-39.551,-117.188,0.000,0
1639023046.337,-86.914,-12.207,-43.945,-248.047,0.000,0
1639023046.341,-55.664,-12.695,-35.156,-113.770,0.000,0
1639023046.345,-47.363,-9.277,-23.438,100.586,0.000,0
1639023046.349,-73.242,-10.742,-26.855,121.094,0.000,0
1639023046.353,-94.238,-16.113,-40.039,-75.684,0.000,0
1639023046.357,-84.961,-24.902,-45.898,-243.164,0.000,0
1639023046.361,-63.477,-20.996,-41.992,-149.902,0.000,0
1639023046.364,-46.875,-10.254,-35.156,69.336,0.000,0
1639023046.368,-63.965,-13.184,-35.156,131.836,0.000,0
1639023046.372,-96.680,-20.508,-47.852,-39.551,0.000,0
1639023046.376,-101.074,-12.207,-45.898,-229.980,0.000,0
1639023046.380,-72.266,-7.324,-39.551,-172.852,0.000,0
1639023046.380,-47.852,-8.301,-34.668,56.152,0.000,0
1639023046.384,-62.500,-6.836,-33.203,153.320,0.000,0
1639023046.388,-90.332,-6.836,-41.992,-15.137,0.000,0
1639023046.392,-94.238,-11.719,-47.363,-222.656,0.000,0
1639023046.396,-57.617,-17.090,-45.898,-170.410,0.000,0
1639023046.400,-31.738,-17.090,-44.434,65.430,0.000,0
1639023046.403,-57.129,-12.207,-44.434,161.621,0.000,0
1639023046.407,-86.914,-9.277,-45.898,30.762,0.000,0
1639023046.411,-81.543,-16.113,-54.688,-164.551,0.000,0
1639023046.415,-69.336,-16.113,-48.340,-201.172,0.000,0
1639023046.419,-51.270,-3.418,-31.738,-12.207,0.000,0
1639023046.423,-42.480,-3.906,-36.621,156.738,0.000,0
1639023046.423,-73.242,-6.348,-35.156,47.852,0.000,0
1639023046.427,-104.980,-8.789,-39.551,-184.082,0.000,0
1639023046.431,-94.727,-9.277,-38.574,-225.098,0.000,0
1639023046.435,-51.758,-4.395,-29.785,-28.320,0.000,0
1639023046.439,-35.156,-2.441,-33.691,153.809,0.000,0
1639023046.443,-69.824,-3.906,-34.180,84.961,0.000,0
1639023046.446,-93.750,-10.742,-44.922,-151.855,0.000,0
1639023046.450,-64.941,-14.160,-47.363,-231.445,0.000,0
1639023046.454,-33.691,-16.113,-37.109,-32.715,0.000,0
1639023046.458,-44.922,-9.766,-24.902,151.855,0.000,0
1639023046.462,-65.918,-9.766,-25.391,95.703,0.000,0
1639023046.466,-75.684,-18.066,-36.133,-125.488,0.000,0
1639023046.466,-70.312,-14.160,-38.086,-234.375,0.000,0
1639023046.470,-51.758,-8.789,-28.809,-83.984,0.000,0
1639023046.474,-50.293,-8.789,-24.902,123.047,0.000,0
1639023046.478,-67.383,-13.672,-34.668,114.746,0.000,0
1639023046.482,-87.402,-18.066,-35.156,-95.215,0.000,0
1639023046.486,-78.613,-20.020,-35.645,-221.680,0.000,0
1639023046.490,-51.270,-16.113,-30.762,-103.027,0.000,0
1639023046.493,-27.832,-16.113,-23.438,134.766,0.000,0
1639023046.497,-59.082,-17.578,-27.344,152.344,0.000,0
1639023046.501,-106.934,-12.695,-28.809,-83.496,0.000,0
1639023046.505,-87.402,-12.207,-25.879,-228.516,0.000,0
1639023046.509,-47.363,-10.742,-24.902,-127.930,0.000,0
1639023046.510,-24.902,-5.859,-19.531,101.074,0.000,0
1639023046.513,-44.922,-7.324,-22.949,168.457,0.000,0
1639023046.517,-77.637,-13.184,-31.738,-16.113,0.000,0
1639023046.521,-75.684,-17.578,-32.227,-204.102,0.000,0
1639023046.525,-48.828,-17.090,-29.785,-159.668,0.000,0
1639023046.529,-31.250,-12.695,-27.832,57.129,0.000,0
1639023046.533,-44.434,-13.184,-28.809,170.898,0.000,0
1639023046.537,-72.266,-18.066,-38.086,24.414,0.000,0
1639023046.541,-93.262,-17.578,-40.039,-201.172,0.000,0
1639023046.544,-69.336,-12.207,-31.738,-194.336,0.000,0
1639023046.548,-33.203,-11.719,-23.926,38.574,0.000,0
1639023046.552,-57.129,-14.648,-26.367,163.086,0.000,0
1639023046.553,-96.680,-13.672,-32.227,17.578,0.000,0
1639023046.557,-101.074,-18.555,-36.621,-201.660,0.000,0
1639023046.561,-67.383,-23.438,-37.109,-206.543,0.000,0
1639023046.565,-32.227,-14.160,-26.855,9.277,0.000,0
1639023046.568,-45.410,-11.719,-24.414,152.344,0.000,0
1639023046.572,-71.777,-16.602,-35.645,38.574,0.000,0
1639023046.576,-63.477,-23.438,-45.410,-153.320,0.000,0
1639023046.580,-57.129,-26.855,-44.434,-202.637,0.000,0
1639023046.584,-54.199,-12.207,-31.250,-41.016,0.000,0
1639023046.588,-43.945,-9.766,-27.832,150.391,0.000,0
1639023046.592,-66.406,-15.625,-36.133,77.637,0.000,0
1639023046.595,-90.820,-19.043,-41.504,-156.738,0.000,0
1639023046.596,-80.566,-15.137,-38.574,-235.840,0.000,0
1639023046.600,-46.875,-9.277,-33.691,-64.453,0.000,0
1639023046.604,-36.133,-8.301,-28.809,136.230,0.000,0
1639023046.608,-68.848,-11.230,-29.297,89.844,0.000,0
1639023046.612,-96.680,-19.043,-37.598,-131.348,0.000,0
1639023046.616,-75.195,-24.902,-44.922,-232.422,0.000,0
1639023046.619,-26.367,-24.902,-40.527,-62.988,0.000,0
1639023046.623,-27.832,-11.719,-31.738,148.926,0.000,0
1639023046.627,-63.477,-10.254,-31.250,113.281,0.000,0
1639023046.631,-80.078,-15.625,-38.574,-100.098,0.000,0
1639023046.635,-74.707,-10.254,-36.621,-235.352,0.000,0
1639023046.639,-47.363,-7.812,-26.367,-113.770,0.000,0
1639023046.640,-24.414,-8.301,-20.020,120.605,0.000,0
1639023046.644,-42.969,-9.766,-21.484,152.832,0.000,0
1639023046.647,-85.449,-12.207,-27.832,-55.176,0.000,0
1639023046.651,-87.402,-13.672,-31.250,-227.051,0.000,0
1639023046.655,-52.246,-13.672,-27.344,-133.789,0.000,0
1639023046.659,-26.855,-16.602,-27.344,107.422,0.000,0
1639023046.663,-54.688,-16.602,-31.738,167.969,0.000,0
1639023046.667,-82.520,-9.766,-29.297,-18.555,0.000,0
1639023046.670,-60.059,3.418,-19.531,-198.242,0.000,0
1639023046.674,-16.113,4.883,-11.230,-122.070,0.000,0
1639023046.678,-5.371,6.836,-4.883,98.633,0.000,0
1639023046.682,-29.785,19.043,1.465,172.363,0.000,0
1639023046.684,-49.805,14.160,-2.441,30.273,0.000,0
1639023046.688,-55.176,5.859,-12.695,-163.574,0.000,0
1639023046.692,-35.645,9.766,-13.672,-156.250,0.000,0
1639023046.696,-7.812,18.555,-2.441,58.594,0.000,0
1639023046.700,-2.441,16.113,0.488,198.242,0.000,0
1639023046.703,-40.527,2.930,-10.254,84.473,0.000,0
1639023046.707,-67.871,3.418,-14.160,-144.531,0.000,0
1639023046.711,-35.156,8.301,-10.254,-176.270,0.000,0
1639023046.715,1.953,12.695,-1.953,38.086,0.000,0
1639023046.719,-5.371,10.742,-1.953,193.848,0.000,0
1639023046.723,-52.734,13.672,-5.859,66.895,0.000,0
1639023046.726,-66.895,16.113,-8.789,-154.297,0.000,0
1639023046.729,-33.691,8.789,-12.695,-189.941,0.000,0
1639023046.733,-5.371,5.859,-7.324,-1.465,0.000,0
1639023046.736,-13.672,10.742,1.465,176.270,0.000,0
1639023046.740,-34.668,11.230,0.977,105.469,0.000,0
1639023046.744,-42.969,5.371,-5.859,-123.047,0.000,0
1639023046.748,-35.645,2.441,-14.648,-209.473,0.000,0
1639023046.752,-23.926,10.254,-11.719,-45.898,0.000,0
1639023046.756,-24.902,17.578,-1.465,145.508,0.000,0
1639023046.759,-32.715,4.395,-9.277,134.766,0.000,0
1639023046.763,-53.711,1.465,-17.578,-83.008,0.000,0
1639023046.767,-64.941,16.602,-10.254,-227.051,0.000,0
1639023046.771,-33.203,13.184,-6.348,-75.195,0.000,0
1639023046.773,-15.625,4.395,-8.301,134.277,0.000,0
1639023046.777,-52.246,6.836,-12.695,122.559,0.000,0
1639023046.781,-73.730,12.207,-13.184,-78.613,0.000,0
1639023046.785,-49.805,9.766,-14.648,-226.074,0.000,0
1639023046.789,-24.902,2.441,-18.555,-109.863,0.000,0
1639023046.792,-19.043,5.859,-9.766,120.117,0.000,0
1639023046.796,-37.598,7.812,-5.859,140.625,0.000,0
1639023046.800,-66.895,1.953,-18.555,-67.871,0.000,0
1639023046.804,-61.523,-1.953,-20.996,-214.355,0.000,0
1639023046.808,-41.016,7.812,-6.348,-137.695,0.000,0
1639023046.812,-29.785,12.695,1.465,63.965,0.000,0
1639023046.815,-33.203,6.836,-2.441,151.367,0.000,0
1639023046.818,-61.035,5.859,-6.348,-18.555,0.000,0
1639023046.822,-64.453,3.906,-10.254,-217.285,0.000,0
1639023046.825,-36.621,2.441,-9.277,-170.898,0.000,0
1639023046.829,-20.508,0.977,-4.395,66.895,0.000,0
1639023046.833,-36.133,7.812,-5.859,173.340,0.000,0
1639023046.837,-68.848,4.395,-14.648,19.043,0.000,0
1639023046.841,-83.984,-0.977,-18.555,-195.312,0.000,0
1639023046.845,-37.598,-0.977,-17.090,-155.762,0.000,0
1639023046.848,-19.043,3.418,-8.301,57.129,0.000,0
1639023046.852,-51.758,20.020,4.395,147.461,0.000,0
1639023046.856,-62.012,16.602,0.977,34.180,0.000,0
1639023046.860,-70.312,8.789,-8.789,-170.410,0.000,0
1639023046.862,-58.105,12.207,-5.371,-197.754,0.000,0
1639023046.866,-34.180,12.695,3.418,2.441,0.000,0
1639023046.870,-24.414,10.742,4.883,175.293,0.000,0
1639023046.874,-50.293,11.719,-4.883,81.543,0.000,0
1639023046.878,-77.637,5.859,-14.648,-153.320,0.000,0
1639023046.882,-57.129,0.977,-14.160,-202.637,0.000,0
1639023046.885,-27.832,7.812,-12.695,-4.883,0.000,0
1639023046.889,-25.391,9.766,-13.672,180.176,0.000,0
1639023046.893,-70.801,6.836,-13.672,76.660,0.000,0
1639023046.897,-98.145,1.465,-23.438,-165.527,0.000,0
1639023046.901,-65.918,0.488,-22.461,-224.121,0.000,0
1639023046.904,-34.180,9.277,-9.277,-46.387,0.000,0
1639023046.907,-27.832,11.719,-2.441,147.949,0.000,0
1639023046.911,-47.363,4.395,-4.395,116.699,0.000,0
1639023046.915,-83.008,-4.883,-21.973,-109.863,0.000,1
1639023046.918,-73.730,-8.301,-32.227,-229.980,0.000,0
1639023046.922,-40.527,1.465,-20.508,-95.215,0.000,0
1639023046.926,-26.367,2.930,-14.648,118.164,0.000,0
1639023046.930,-36.621,-8.301,-20.996,147.949,0.000,0
1639023046.934,-70.312,-8.789,-25.879,-62.500,0.000,0
1639023046.938,-78.613,0.977,-19.531,-222.656,0.000,0
1639023046.941,-36.133,-0.977,-15.137,-109.863,0.000,0
1639023046.945,-18.066,-4.395,-11.230,106.934,0.000,0
1639023046.949,-54.688,-4.395,-14.648,149.902,0.000,0
1639023046.951,-92.285,-8.301,-26.855,-52.734,0.000,0
1639023046.955,-86.426,-9.766,-34.668,-215.820,0.000,0
1639023046.959,-62.012,-3.418,-31.250,-132.812,0.000,0
1639023046.963,-42.969,2.441,-17.090,74.219,0.000,0
1639023046.967,-40.527,-0.488,-12.207,156.738,0.000,0
1639023046.971,-66.406,-10.742,-26.855,-4.395,0.000,0
1639023046.974,-76.172,-20.996,-42.480,-183.105,0.000,0
1639023046.978,-52.734,-15.625,-35.156,-151.367,0.000,0
1639023046.982,-36.133,-3.906,-15.625,51.270,0.000,0
1639023046.986,-40.039,-3.906,-16.602,169.434,0.000,0
1639023046.990,-65.918,-10.254,-25.879,20.020,0.000,0
1639023046.994,-86.914,-13.672,-25.879,-202.637,0.000,0
1639023046.996,-65.918,-18.066,-20.996,-188.965,0.000,0
1639023047.000,-33.691,-22.949,-19.043,31.738,0.000,0
1639023047.004,-36.621,-8.789,-11.719,167.480,0.000,0
1639023047.007,-66.895,-1.953,-8.301,29.785,0.000,0
1639023047.011,-83.496,-8.301,-21.973,-189.941,0.000,0
1639023047.015,-61.035,-14.648,-31.738,-198.242,0.000,0
1639023047.019,-34.668,-14.160,-26.855,5.371,0.000,0
1639023047.023,-46.875,-0.488,-11.230,148.926,0.000,0
1639023047.027,-69.824,3.906,-12.695,52.734,0.000,0
1639023047.030,-75.684,-7.324,-28.809,-154.297,0.000,0
1639023047.034,-72.754,-4.883,-26.367,-222.168,0.000,0
1639023047.038,-45.898,3.906,-10.254,-51.270,0.000,0
1639023047.041,-33.203,0.000,-12.695,146.484,0.000,0
1639023047.045,-62.500,-2.441,-25.391,81.543,0.000,0
1639023047.049,-83.008,-4.395,-30.273,-148.926,0.000,0
1639023047.053,-68.359,-5.371,-24.414,-229.492,0.000,0
1639023047.057,-42.969,-3.418,-17.090,-62.500,0.000,0
1639023047.061,-24.414,-7.324,-16.602,169.434,0.000,0
1639023047.064,-48.340,-16.113,-22.461,116.211,0.000,0
1639023047.068,-87.891,-24.414,-37.109,-135.254,0.000,0
1639023047.072,-65.918,-24.414,-39.551,-207.520,0.000,0
1639023047.076,-29.297,-17.578,-22.949,-69.824,0.000,0
1639023047.080,-32.227,-10.742,-7.812,115.234,0.000,0
1639023047.083,-63.477,-8.301,-11.230,111.816,0.000,0
1639023047.087,-89.355,-14.648,-28.320,-81.543,0.000,0
1639023047.091,-78.613,-20.020,-30.762,-228.516,0.000,0
1639023047.094,-44.922,-14.160,-20.996,-124.512,0.000,0
1639023047.098,-33.203,-8.301,-18.555,105.469,0.000,0
1639023047.102,-62.012,-19.531,-25.391,159.180,0.000,0
1639023047.106,-88.379,-29.785,-36.133,-35.645,0.000,0
1639023047.110,-84.473,-20.996,-35.645,-221.680,0.000,0
1639023047.114,-55.176,-15.625,-26.855,-154.785,0.000,0
1639023047.117,-15.625,-20.508,-22.461,104.980,0.000,0
1639023047.121,-41.992,-24.414,-24.902,185.059,0.000,0
1639023047.125,-97.168,-22.949,-31.250,-26.367,0.000,0
1639023047.129,-77.637,-27.344,-34.180,-207.520,0.000,0
1639023047.132,-47.363,-26.855,-31.738,-168.945,0.000,0
1639023047.136,-44.922,-19.531,-26.367,39.062,0.000,0
1639023047.140,-54.688,-19.531,-25.879,157.715,0.000,0
1639023047.144,-76.660,-26.367,-32.715,21.973,0.000,0
1639023047.147,-89.844,-28.809,-35.156,-192.871,0.000,0
1639023047.151,-65.430,-22.949,-32.227,-180.664,0.000,0
1639023047.155,-30.762,-18.066,-30.273,39.062,0.000,0
1639023047.159,-40.527,-22.949,-30.273,169.922,0.000,0
1639023047.163,-76.660,-27.832,-33.691,48.340,0.000,0
1639023047.167,-101.562,-20.020,-32.227,-186.523,0.000,0
1639023047.170,-83.008,-16.113,-28.320,-229.004,0.000,0
1639023047.174,-43.945,-19.043,-24.902,-16.113,0.000,0
1639023047.178,-42.480,-19.531,-20.996,152.832,0.000,0
1639023047.181,-76.172,-22.949,-24.902,59.570,0.000,0
1639023047.185,-82.031,-30.273,-35.645,-160.156,0.000,0
1639023047.189,-62.012,-31.738,-38.574,-223.145,0.000,0
1639023047.193,-44.922,-30.273,-27.832,-37.598,0.000,0
1639023047.197,-32.227,-23.926,-18.555,161.133,0.000,0
1639023047.200,-59.082,-20.508,-23.926,100.098,0.000,0
1639023047.204,-78.125,-32.715,-42.969,-111.328,0.000,0
1639023047.208,-59.570,-37.109,-46.387,-199.219,0.000,0
1639023047.212,-50.781,-21.973,-26.367,-64.941,0.000,0
1639023047.216,-37.598,-17.578,-19.043,146.973,0.000,0
1639023047.220,-58.594,-20.996,-21.973,141.113,0.000,0
1639023047.223,-79.102,-20.996,-23.926,-86.914,0.000,0
1639023047.227,-64.941,-18.555,-28.809,-231.445,0.000,0
1639023047.231,-36.133,-16.602,-30.273,-89.844,0.000,0
1639023047.234,-32.715,-12.207,-25.879,122.559,0.000,0
1639023047.238,-70.312,-15.137,-26.367,119.629,0.000,0
1639023047.242,-83.496,-23.926,-38.086,-84.961,0.000,0
1639023047.246,-70.801,-29.785,-43.945,-224.609,0.000,0
1639023047.250,-44.922,-31.250,-33.691,-104.004,0.000,0
1639023047.253,-36.133,-18.066,-24.902,101.562,0.000,0
1639023047.257,-74.219,-11.719,-20.996,129.395,0.000,0
1639023047.261,-95.703,-20.996,-29.785,-58.594,0.000,0
1639023047.265,-98.145,-22.461,-37.109,-238.281,0.000,0
1639023047.268,-87.402,-12.695,-25.879,-168.457,0.000,0
1639023047.272,-54.688,-9.277,-19.043,67.383,0.000,0
1639023047.276,-48.828,-14.648,-22.461,154.785,0.000,0
1639023047.280,-79.102,-17.090,-26.367,-21.484,0.000,0
1639023047.283,-82.520,-14.160,-26.367,-216.797,0.000,0
1639023047.287,-45.898,-17.090,-23.438,-165.039,0.000,0
1639023047.291,-19.531,-21.973,-19.531,72.266,0.000,0
1639023047.295,-27.832,-19.531,-21.484,178.223,0.000,0
1639023047.299,-75.195,-8.789,-25.391,-0.488,0.000,0
1639023047.303,-87.891,-13.184,-31.250,-213.379,0.000,0
1639023047.306,-60.547,-16.602,-30.273,-188.477,0.000,0
1639023047.310,-29.785,-7.324,-20.996,15.137,0.000,0
1639023047.314,-39.062,-2.930,-15.137,141.113,0.000,0
1639023047.318,-75.195,-8.789,-17.090,32.715,0.000,0
1639023047.322,-82.031,-18.066,-26.367,-190.430,0.000,0
1639023047.326,-69.336,-22.949,-27.344,-233.398,0.000,0
1639023047.329,-32.715,-20.508,-20.996,-26.855,0.000,0
1639023047.333,-20.508,-20.020,-19.531,158.691,0.000,0
1639023047.337,-52.734,-26.367,-30.762,85.449,0.000,0
1639023047.341,-69.824,-20.020,-34.180,-146.484,0.000,0
1639023047.345,-62.012,-10.742,-28.320,-225.098,0.000,0
1639023047.349,-24.414,-10.254,-25.879,-33.203,0.000,0
1639023047.352,-17.090,-11.719,-20.020,165.039,0.000,0
1639023047.356,-64.453,-15.137,-20.508,93.262,0.000,0
1639023047.359,-93.262,-19.043,-26.367,-139.160,0.000,0
1639023047.363,-70.801,-22.949,-25.391,-225.586,0.000,0
1639023047.367,-34.180,-18.555,-16.602,-63.965,0.000,0
1639023047.371,-30.273,-9.766,-13.184,130.859,0.000,0
1639023047.375,-62.012,-13.184,-17.578,108.398,0.000,0
1639023047.378,-76.172,-23.926,-28.809,-99.609,0.000,0
1639023047.382,-65.430,-20.020,-28.320,-214.844,0.000,0
1639023047.386,-54.199,-15.137,-17.578,-103.516,0.000,0
1639023047.390,-32.715,-15.137,-14.160,99.609,0.000,0
1639023047.394,-36.621,-20.020,-19.043,153.809,0.000,0
1639023047.398,-74.707,-20.996,-24.414,-47.852,0.000,0
1639023047.401,-76.660,-12.207,-27.832,-234.863,0.000,0
1639023047.405,-43.457,-14.160,-27.344,-133.301,0.000,0
1639023047.409,-31.250,-9.766,-17.578,102.539,0.000,0
1639023047.413,-41.992,-13.184,-16.602,151.367,0.000,0
1639023047.417,-75.684,-15.137,-17.578,-41.504,0.000,0
1639023047.421,-75.684,-14.160,-20.020,-209.961,0.000,0
1639023047.424,-41.016,-19.043,-20.996,-122.070,0.000,0
1639023047.428,-24.902,-16.113,-15.137,97.656,0.000,0
1639023047.432,-37.109,-15.625,-15.625,161.621,0.000,0
1639023047.436,-63.965,-22.461,-25.879,-8.789,0.000,0
1639023047.440,-63.477,-22.461,-30.762,-199.707,0.000,0
1639023047.443,-51.270,-17.578,-22.461,-174.805,0.000,0
1639023047.447,-33.691,-10.742,-13.184,51.270,0.000,0
1639023047.451,-46.387,-13.184,-16.602,175.293,0.000,0
1639023047.455,-67.383,-17.578,-22.949,34.180,0.000,0
1639023047.459,-77.637,-15.137,-25.391,-190.430,0.000,0
1639023047.463,-63.965,-11.719,-24.902,-198.242,0.000,0
1639023047.466,-25.879,-10.254,-18.066,33.203,0.000,0
1639023047.470,-18.066,-13.184,-14.160,177.246,0.000,0
1639023047.474,-47.363,-14.648,-21.973,62.988,0.000,0
1639023047.478,-73.730,-6.836,-27.832,-158.691,0.000,0
1639023047.482,-36.133,-6.348,-25.391,-169.922,0.000,0
1639023047.486,-4.883,-7.812,-18.066,29.297,0.000,0
1639023047.489,-37.109,3.418,-11.719,154.785,0.000,0
1639023047.493,-63.965,2.441,-17.578,76.660,0.000,0
1639023047.497,-77.148,0.000,-20.020,-142.578,0.000,0
1639023047.501,-68.848,-0.488,-16.602,-218.750,0.000,0
1639023047.505,-33.203,0.488,-12.207,-36.133,0.000,0
1639023047.509,-11.719,5.859,-11.230,165.039,0.000,0
1639023047.512,-33.691,0.000,-18.555,115.234,0.000,0
1639023047.516,-73.242,-4.883,-24.414,-119.629,0.000,0
1639023047.520,-67.383,-5.371,-22.949,-207.031,0.000,0
1639023047.524,-22.949,-2.930,-17.578,-32.227,0.000,0
1639023047.528,-13.184,0.488,-10.254,157.227,0.000,0
1639023047.531,-62.500,1.465,-9.277,117.676,0.000,0
1639023047.535,-87.891,4.395,-15.137,-97.168,0.000,0
1639023047.539,-54.688,-5.859,-21.484,-201.660,0.000,0
1639023047.543,-35.645,-9.766,-22.461,-84.961,0.000,0
1639023047.547,-40.527,-2.930,-13.184,115.723,0.000,0
1639023047.551,-55.176,-7.812,-17.090,137.695,0.000,0
1639023047.554,-75.684,-4.395,-24.414,-58.594,0.000,0
1639023047.558,-67.383,-3.418,-20.996,-202.148,0.000,0
1639023047.562,-34.180,-7.812,-15.137,-108.887,0.000,0
1639023047.566,-16.113,-3.906,-9.277,108.887,0.000,0
1639023047.570,-16.602,-7.324,-13.184,176.270,0.000,0
1639023047.573,-57.129,-10.742,-18.555,-18.555,0.000,0
1639023047.577,-89.355,-1.465,-15.625,-236.816,0.000,0
1639023047.581,-53.223,5.371,-10.254,-158.203,0.000,0
1639023047.585,-17.090,9.766,-6.348,90.332,0.000,0
1639023047.589,-20.508,11.230,-7.324,165.527,0.000,0
1639023047.593,-63.965,9.766,-11.230,-0.977,0.000,0
1639023047.596,-69.336,3.418,-20.020,-191.895,0.000,0
1639023047.600,-27.832,-0.977,-17.090,-165.039,0.000,0
1639023047.604,-8.789,0.977,-3.906,57.617,0.000,0
1639023047.608,-24.414,2.930,-11.230,181.152,0.000,0
1639023047.612,-53.223,-0.488,-23.926,39.551,0.000,0
1639023047.615,-61.035,-12.207,-28.809,-167.480,0.000,0
1639023047.619,-55.664,-7.324,-19.531,-191.406,0.000,0
1639023047.623,-29.297,2.930,-10.254,11.230,0.000,0
1639023047.627,-38.086,-2.441,-16.602,169.922,0.000,0
1639023047.631,-63.965,-3.418,-18.066,59.082,0.000,0
1639023047.634,-58.105,0.000,-15.137,-166.504,0.000,0
1639023047.638,-43.945,-1.953,-17.090,-202.148,0.000,0
1639023047.642,-17.090,-3.418,-15.137,15.625,0.000,0
1639023047.646,-35.645,-0.488,-8.789,176.758,0.000,0
1639023047.650,-71.289,-3.906,-11.719,76.172,0.000,0
1639023047.654,-66.895,-8.301,-20.508,-134.277,0.000,0
1639023047.657,-29.785,-19.043,-22.949,-169.922,0.000,0
1639023047.661,-6.348,-16.602,-15.625,-4.883,0.000,0
1639023047.665,-25.391,-2.930,-5.859,146.973,0.000,0
1639023047.669,-51.758,-4.883,-9.277,113.281,0.000,0
1639023047.673,-67.871,-11.719,-23.438,-108.887,0.000,0
1639023047.676,-51.758,-12.695,-28.320,-223.633,0.000,0
1639023047.680,-33.203,-4.395,-20.020,-70.312,0.000,0
1639023047.684,-28.809,-2.441,-17.090,145.996,0.000,0
1639023047.688,-50.293,-11.719,-20.020,139.160,0.000,0
1639023047.692,-72.266,-13.672,-20.508,-81.055,0.000,0
1639023047.695,-52.246,-11.230,-19.531,-219.238,0.000,0
1639023047.699,-24.414,-16.602,-22.949,-88.867,0.000,0
1639023047.703,-17.578,-21.973,-23.438,149.902,0.000,0
1639023047.707,-43.945,-19.531,-19.531,166.016,0.000,0
1639023047.711,-78.125,-10.742,-20.508,-56.152,0.000,0
1639023047.714,-68.359,-10.254,-23.438,-223.633,0.000,0
1639023047.718,-34.668,-7.812,-14.160,-128.906,0.000,0
1639023047.722,-19.043,3.418,-5.859,98.145,0.000,0
1639023047.726,-30.762,1.953,-7.812,156.738,0.000,0
1639023047.730,-67.383,-6.836,-14.648,-21.484,0.000,0
1639023047.733,-75.195,-9.766,-21.973,-204.102,0.000,0
1639023047.737,-37.109,-5.859,-20.508,-152.832,0.000,0
1639023047.741,-13.672,-0.488,-12.695,69.336,0.000,0
1639023047.745,-12.207,-6.836,-18.066,179.199,0.000,0
1639023047.749,-46.875,-12.207,-26.367,17.090,0.000,0
1639023047.752,-76.172,-5.371,-24.902,-203.125,0.000,0
1639023047.756,-39.551,-4.883,-26.855,-162.109,0.000,0
1639023047.760,-4.395,-6.348,-25.879,68.359,0.000,0
1639023047.764,-25.879,-2.930,-19.531,184.082,0.000,0
1639023047.768,-66.895,-3.906,-19.043,41.992,0.000,0
1639023047.772,-62.988,-5.859,-26.367,-178.223,0.000,0
1639023047.776,-43.945,-8.301,-29.785,-187.012,0.000,0
1639023047.780,-24.414,-9.766,-29.297,23.438,0.000,0
1639023047.783,-42.969,-3.906,-23.438,164.062,0.000,0
1639023047.787,-75.195,-11.719,-30.273,50.781,0.000,0
1639023047.791,-66.406,-23.438,-43.945,-163.574,0.000,0
1639023047.795,-43.945,-18.066,-42.969,-197.754,0.000,0
1639023047.799,-27.344,-12.695,-31.738,-11.230,0.000,0
1639023047.803,-27.832,-16.602,-25.879,167.969,0.000,1
1639023047.806,-42.480,-14.648,-31.250,99.609,0.000,0
1639023047.810,-67.383,-9.277,-35.156,-145.996,0.000,0
1639023047.814,-41.016,-11.230,-36.133,-215.332,0.000,0
1639023047.818,-11.719,-7.324,-31.250,-30.762,0.000,0
1639023047.822,-16.113,-2.441,-18.066,163.574,0.000,0
1639023047.826,-46.387,0.000,-12.695,102.051,0.000,0
1639023047.830,-71.289,-1.953,-20.020,-128.418,0.000,0
1639023047.833,-52.246,-1.953,-22.461,-217.773,0.000,0
1639023047.837,-15.137,0.977,-14.648,-58.105,0.000,0
1639023047.841,-4.883,8.789,-3.906,155.762,0.000,0
1639023047.845,-39.062,18.555,1.465,145.020,0.000,0
1639023047.849,-47.852,4.883,-9.766,-62.988,0.000,0
1639023047.853,-36.133,-1.953,-16.602,-205.566,0.000,0
1639023047.856,-25.879,14.648,-6.836,-94.727,0.000,0
1639023047.860,-11.719,13.672,-1.465,125.977,0.000,0
1639023047.864,-40.039,2.441,-3.418,147.461,0.000,0
1639023047.868,-63.965,-0.488,-7.812,-48.340,0.000,0
1639023047.872,-54.199,0.488,-11.719,-204.590,0.000,0
1639023047.876,-29.297,-1.953,-14.648,-107.422,0.000,0
1639023047.880,-1.465,-1.465,-6.348,124.023,0.000,0
1639023047.883,-19.043,3.906,1.953,184.570,0.000,0
1639023047.887,-54.199,-1.465,-6.836,1.953,0.000,0
1639023047.891,-40.527,-1.465,-14.160,-173.828,0.000,0
1639023047.895,-11.230,2.441,-10.254,-117.676,0.000,0
1639023047.899,-5.859,9.766,3.906,90.332,0.000,0
1639023047.903,-29.297,15.137,9.766,175.781,0.000,0
1639023047.906,-60.547,5.371,1.465,18.555,0.000,0
1639023047.911,-59.570,-0.977,-2.441,-183.105,0.000,0
1639023047.914,-37.109,7.812,0.488,-166.016,0.000,0
1639023047.918,-13.184,13.184,6.348,62.012,0.000,0
1639023047.922,-18.555,15.625,3.906,191.406,0.000,0
1639023047.926,-53.223,7.324,-10.742,53.711,0.000,0
1639023047.930,-62.988,-4.395,-18.066,-158.691,0.000,0
1639023047.933,-35.156,-1.465,-14.160,-167.480,0.000,0
1639023047.937,-0.488,-4.395,-5.859,50.293,0.000,0
1639023047.941,-21.484,-10.254,-4.395,194.824,0.000,0
1639023047.945,-71.777,-4.395,-7.812,59.082,0.000,0
1639023047.949,-76.660,-4.883,-10.254,-161.133,0.000,0
1639023047.953,-57.617,-6.348,-9.766,-197.266,0.000,0
1639023047.957,-22.461,0.488,-1.465,-10.254,0.000,0
1639023047.960,-14.160,4.395,6.348,166.016,0.000,0
1639023047.964,-45.410,-0.488,0.000,97.168,0.000,0
1639023047.968,-62.012,-3.906,-15.625,-134.766,0.000,0
1639023047.972,-52.734,-4.883,-17.090,-211.914,0.000,0
1639023047.976,-20.996,-7.324,-11.719,-25.879,0.000,0
1639023047.980,-9.277,-5.371,-7.812,170.410,0.000,0
1639023047.983,-29.785,-5.859,-9.277,142.578,0.000,0
1639023047.987,-65.918,-2.441,-18.555,-89.844,0.000,0
1639023047.991,-66.895,1.465,-17.090,-229.980,0.000,0
1639023047.995,-31.250,1.465,-12.207,-68.359,0.000,0
1639023047.999,-26.855,2.441,-7.812,140.137,0.000,0
1639023048.003,-55.176,-4.395,-7.812,116.211,0.000,0
1639023048.006,-81.055,-9.277,-16.113,-96.191,0.000,0
1639023048.010,-51.758,-1.953,-19.043,-222.656,0.000,0
1639023048.014,-28.809,3.906,-10.742,-103.027,0.000,0
1639023048.018,-25.879,4.883,-5.859,119.141,0.000,0
1639023048.022,-35.645,1.465,-11.230,158.203,0.000,0
1639023048.026,-54.688,-10.254,-19.043,-21.484,0.000,0
1639023048.029,-49.316,-12.695,-17.578,-184.570,0.000,0
1639023048.033,-47.852,-3.418,-5.859,-135.742,0.000,0
1639023048.037,-31.738,-0.488,0.488,91.309,0.000,0
1639023048.041,-36.621,-0.977,-0.488,155.273,0.000,0
1639023048.045,-68.359,-9.277,-9.277,-31.738,0.000,0
1639023048.049,-71.289,-8.301,-9.277,-199.707,0.000,0
1639023048.052,-33.203,-4.883,-4.883,-142.578,0.000,0
1639023048.056,-11.719,-2.441,1.953,83.984,0.000,0
1639023048.060,-36.621,0.977,6.836,167.969,0.000,0
1639023048.064,-62.500,-3.906,-4.395,0.977,0.000,0
1639023048.068,-60.059,-15.137,-19.043,-186.523,0.000,0
1639023048.072,-25.879,-22.949,-23.438,-137.695,0.000,0
1639023048.075,-9.766,-5.859,-5.859,70.312,0.000,0
1639023048.079,-41.992,2.441,0.000,161.621,0.000,0
1639023048.083,-63.477,-0.488,-11.230,41.992,0.000,0
1639023048.087,-57.129,0.488,-19.531,-166.504,0.000,0
1639023048.091,-45.410,-1.953,-15.625,-194.824,0.000,0
1639023048.095,-26.855,2.930,-7.324,22.461,0.000,0
1639023048.098,-19.043,1.465,-8.789,184.082,0.000,0
1639023048.102,-39.062,-4.395,-17.578,80.078,0.000,0
1639023048.106,-65.918,-6.348,-21.973,-147.949,0.000,0
1639023048.110,-56.641,-8.301,-19.531,-199.219,0.000,0
1639023048.114,-3.906,-10.742,-14.648,19.531,0.000,0
1639023048.117,-9.277,-10.254,-13.184,195.312,0.000,0
1639023048.121,-71.777,0.977,-13.672,86.914,0.000,0
1639023048.125,-82.031,0.977,-25.879,-145.996,0.000,0
1639023048.129,-62.012,-1.465,-34.180,-227.051,0.000,0
1639023048.133,-35.645,0.000,-22.949,-51.270,0.000,0
1639023048.137,-31.738,0.488,-15.625,147.461,0.000,0
1639023048.141,-52.246,-4.395,-22.461,106.934,0.000,0
1639023048.145,-67.383,-6.348,-23.926,-110.840,0.000,0
1639023048.149,-66.895,-6.836,-18.555,-215.332,0.000,0
1639023048.152,-36.133,-2.930,-12.207,-71.289,0.000,0
1639023048.156,-13.672,-3.906,-8.301,133.301,0.000,0
1639023048.160,-29.785,-9.277,-9.277,144.531,0.000,0
1639023048.164,-58.594,-7.324,-14.648,-62.988,0.000,0
1639023048.168,-58.594,-8.789,-20.508,-212.891,0.000,0
1639023048.172,-30.273,-9.766,-14.160,-86.914,0.000,0
1639023048.175,-25.879,-10.742,-6.836,146.484,0.000,0
1639023048.179,-63.965,-8.789,-6.836,153.320,0.000,0
1639023048.183,-100.586,-10.254,-14.648,-61.035,0.000,0
1639023048.187,-84.473,-15.137,-20.508,-211.426,0.000,0
1639023048.191,-39.062,-12.695,-17.090,-125.977,0.000,0
1639023048.195,-41.992,-9.766,-13.672,88.867,0.000,0
1639023048.199,-61.035,-11.230,-18.555,161.133,0.000,0
1639023048.203,-69.824,-18.555,-32.715,-10.742,0.000,0
1639023048.207,-78.125,-20.508,-37.598,-198.242,0.000,0
1639023048.210,-55.664,-13.672,-26.367,-153.320,0.000,0
1639023048.214,-31.738,-1.953,-16.602,72.266,0.000,0
1639023048.218,-29.297,-11.230,-20.508,192.871,0.000,0
1639023048.222,-56.641,-19.043,-26.367,33.691,0.000,0
1639023048.226,-91.309,-8.789,-20.508,-203.613,0.000,0
1639023048.229,-61.035,-8.301,-21.973,-189.453,0.000,0
1639023048.234,-20.020,-10.742,-23.926,42.480,0.000,0
1639023048.238,-33.691,-9.277,-20.020,168.945,0.000,0
1639023048.241,-66.406,-8.789,-18.066,42.969,0.000,0
1639023048.245,-72.754,-13.184,-21.973,-172.363,0.000,0
1639023048.249,-47.852,-15.137,-23.438,-190.918,0.000,0
1639023048.253,-27.832,-7.812,-19.531,26.367,0.000,0
1639023048.257,-36.621,-6.348,-17.090,169.922,0.000,0
1639023048.261,-61.035,-8.789,-20.996,61.035,0.000,0
1639023048.264,-68.359,-13.672,-31.738,-150.391,0.000,0
1639023048.268,-60.059,-7.812,-24.414,-210.449,0.000,0
1639023048.272,-34.668,3.906,-16.113,-36.621,0.000,0
1639023048.276,-37.598,-1.953,-20.996,160.156,0.000,0
1639023048.280,-75.684,-5.859,-22.949,90.332,0.000,0
1639023048.284,-89.355,-4.883,-23.926,-152.344,0.000,0
1639023048.288,-67.871,-7.324,-28.809,-229.492,0.000,0
1639023048.292,-32.227,-8.301,-29.297,-50.781,0.000,0
1639023048.295,-26.367,-3.906,-23.926,145.996,0.000,0
1639023048.299,-59.082,-0.977,-25.879,112.793,0.000,0
1639023048.303,-87.402,-3.418,-36.621,-112.793,0.000,0
1639023048.307,-66.406,-9.766,-42.480,-212.891,0.000,0
1639023048.311,-33.203,-9.277,-35.156,-61.035,0.000,0
1639023048.315,-42.480,0.488,-25.391,122.070,0.000,0
1639023048.318,-62.012,-4.395,-31.250,111.328,0.000,0
1639023048.322,-89.355,-17.578,-47.363,-97.168,0.000,0
1639023048.326,-92.773,-19.043,-46.875,-243.164,0.000,0
1639023048.330,-54.199,-13.184,-38.086,-128.906,0.000,0
1639023048.334,-29.297,-18.555,-38.086,99.121,0.000,0
1639023048.338,-63.477,-19.043,-41.504,127.441,0.000,0
1639023048.342,-95.215,-15.625,-42.969,-65.918,0.000,0
1639023048.346,-86.426,-20.508,-45.898,-222.656,0.000,0
1639023048.349,-43.945,-13.672,-38.086,-130.859,0.000,0
1639023048.353,-9.277,-10.742,-32.715,98.633,0.000,0
1639023048.357,-46.387,-2.441,-25.879,142.578,0.000,0
1639023048.361,-92.285,-4.883,-25.391,-43.457,0.000,0
1639023048.365,-80.078,-20.020,-40.527,-223.633,0.000,0
1639023048.369,-38.574,-20.996,-40.039,-171.875,0.000,0
1639023048.373,-39.551,-14.648,-28.320,48.340,0.000,0
1639023048.377,-58.594,-15.137,-27.832,146.484,0.000,0
1639023048.380,-69.824,-25.391,-36.133,3.906,0.000,0
1639023048.384,-83.008,-29.297,-38.574,-201.172,0.000,0
1639023048.388,-65.918,-20.020,-37.598,-182.617,0.000,0
1639023048.392,-32.715,-19.043,-34.180,26.855,0.000,0
1639023048.396,-25.391,-30.762,-41.016,163.574,0.000,0
1639023048.399,-67.871,-32.227,-48.340,48.340,0.000,0
1639023048.403,-94.727,-25.391,-47.363,-197.754,0.000,0
1639023048.407,-55.664,-24.902,-46.875,-216.309,0.000,0
1639023048.411,-33.203,-20.996,-45.898,1.465,0.000,0
1639023048.415,-45.410,-19.043,-37.598,157.227,0.000,0
1639023048.419,-67.383,-17.578,-32.715,58.594,0.000,0
1639023048.423,-84.473,-24.902,-43.945,-162.109,0.000,0
1639023048.427,-66.406,-29.785,-45.410,-206.055,0.000,0
1639023048.430,-44.922,-19.043,-30.273,-20.996,0.000,0
1639023048.434,-41.016,-19.043,-27.344,147.949,0.000,0
1639023048.438,-59.570,-30.762,-38.574,90.820,0.000,0
1639023048.442,-75.195,-42.480,-47.852,-119.141,0.000,0
1639023048.446,-66.895,-37.598,-47.363,-223.145,0.000,0
1639023048.450,-38.574,-27.344,-40.039,-74.707,0.000,0
1639023048.453,-34.668,-30.762,-38.086,127.930,0.000,0
1639023048.457,-63.965,-34.180,-39.062,101.562,0.000,0
1639023048.461,-88.379,-38.086,-44.922,-123.535,0.000,0
1639023048.465,-89.844,-32.227,-43.457,-250.977,0.000,0
1639023048.469,-61.035,-28.320,-42.969,-100.586,0.000,0
1639023048.473,-39.551,-21.484,-40.527,121.094,0.000,0
1639023048.476,-60.547,-13.184,-39.062,117.676,0.000,0
1639023048.480,-93.750,-20.020,-48.828,-93.262,0.000,0
1639023048.484,-74.219,-33.691,-55.176,-214.844,0.000,0
1639023048.488,-36.133,-27.344,-45.898,-104.004,0.000,0
1639023048.492,-50.781,-12.695,-33.203,88.379,0.000,0
1639023048.496,-78.613,-15.625,-35.645,128.418,0.000,0
1639023048.499,-98.633,-26.367,-44.434,-62.012,0.000,0
1639023048.503,-107.910,-34.668,-46.875,-245.605,0.000,0
1639023048.507,-78.613,-33.203,-41.992,-164.551,0.000,0
1639023048.512,-48.340,-33.203,-35.645,69.824,0.000,0
1639023048.515,-73.730,-33.203,-32.715,140.625,0.000,0
1639023048.519,-111.816,-35.156,-37.598,-42.969,0.000,0
1639023048.523,-104.980,-42.480,-44.434,-237.305,0.000,0
1639023048.527,-67.383,-42.480,-44.922,-171.387,0.000,0
1639023048.531,-54.199,-38.574,-39.062,59.082,0.000,0
1639023048.535,-61.523,-38.574,-33.203,142.090,0.000,0
1639023048.538,-93.262,-45.410,-41.504,-20.508,0.000,0
1639023048.542,-98.145,-49.805,-46.387,-205.078,0.000,0
1639023048.546,-51.758,-43.945,-40.039,-176.758,0.000,0
1639023048.550,-36.133,-32.715,-28.320,16.602,0.000,0
1639023048.554,-56.152,-27.344,-24.414,144.043,0.000,0
1639023048.558,-75.684,-27.832,-31.250,36.621,0.000,0
1639023048.562,-80.566,-26.855,-31.738,-175.781,0.000,0
1639023048.566,-62.012,-22.461,-35.156,-199.219,0.000,0
1639023048.570,-41.016,-23.438,-36.133,2.930,0.000,0
1639023048.573,-41.504,-27.832,-38.086,157.715,0.000,0
1639023048.577,-67.871,-31.738,-49.316,62.500,0.000,0
1639023048.581,-103.027,-34.180,-53.223,-158.203,0.000,0
1639023048.585,-86.426,-24.414,-45.898,-223.145,0.000,0
1639023048.589,-29.297,-27.832,-41.992,-28.809,0.000,0
1639023048.593,-24.902,-31.250,-34.180,160.645,0.000,0
1639023048.596,-79.590,-20.996,-28.809,63.477,0.000,0
1639023048.600,-100.098,-29.785,-37.598,-152.344,0.000,0
1639023048.605,-75.195,-33.203,-40.039,-230.469,0.000,0
1639023048.609,-45.410,-26.367,-29.297,-77.637,0.000,0
1639023048.612,-46.387,-22.461,-24.414,126.465,0.000,0
1639023048.616,-70.312,-23.438,-35.156,110.352,0.000,0
1639023048.620,-80.078,-26.855,-44.434,-99.609,0.000,0
1639023048.624,-61.035,-29.785,-47.363,-227.051,0.000,0
1639023048.628,-37.598,-28.320,-43.457,-99.609,0.000,0
1639023048.631,-34.668,-24.902,-40.039,117.188,0.000,0
1639023048.635,-59.082,-30.273,-42.969,126.465,0.000,0
1639023048.639,-93.262,-24.902,-44.434,-101.074,0.000,0
1639023048.643,-82.520,-17.090,-41.992,-255.859,0.000,0
1639023048.647,-44.922,-21.973,-40.039,-123.535,0.000,0
1639023048.651,-39.062,-21.973,-34.180,94.238,0.000,0
1639023048.655,-66.406,-17.090,-31.738,125.977,0.000,0
1639023048.659,-86.426,-19.531,-36.133,-57.129,0.000,0
1639023048.663,-71.777,-25.391,-36.133,-222.656,0.000,0
1639023048.666,-43.945,-23.438,-26.855,-134.277,0.000,0
1639023048.670,-21.973,-16.113,-22.949,104.004,0.000,0
1639023048.674,-46.875,-12.695,-24.902,158.691,0.000,0
1639023048.678,-76.172,-29.785,-33.203,-8.789,0.000,0
1639023048.682,-71.777,-35.645,-41.992,-194.336,0.000,0
1639023048.686,-67.871,-19.531,-34.180,-183.105,0.000,0
1639023048.689,-43.457,-18.555,-28.320,49.805,0.000,0
1639023048.693,-65.918,-22.461,-30.762,167.969,0.000,0
1639023048.698,-106.934,-26.855,-39.062,5.859,0.000,0
1639023048.701,-99.121,-25.879,-41.992,-204.102,0.000,1
1639023048.705,-66.895,-27.344,-40.527,-180.664,0.000,0
1639023048.709,-38.086,-28.809,-37.109,32.227,0.000,0
1639023048.713,-48.828,-19.531,-31.250,155.273,0.000,0
1639023048.717,-73.242,-21.973,-34.668,50.781,0.000,0
1639023048.721,-75.195,-26.367,-40.039,-154.785,0.000,0
1639023048.724,-43.457,-28.320,-38.086,-170.410,0.000,0
1639023048.728,-43.945,-21.973,-23.438,7.812,0.000,0
1639023048.732,-62.988,-13.672,-18.555,154.297,0.000,0
1639023048.736,-70.312,-22.461,-29.297,75.684,0.000,0
1639023048.740,-84.473,-30.273,-38.574,-152.832,0.000,0
1639023048.744,-61.523,-24.902,-32.227,-213.867,0.000,0
1639023048.748,-21.484,-13.184,-15.625,-13.184,0.000,0
1639023048.752,-23.926,-18.555,-14.160,167.480,0.000,0
1639023048.755,-61.523,-29.297,-25.391,89.355,0.000,0
1639023048.759,-83.984,-32.715,-37.598,-132.812,0.000,0
1639023048.763,-71.289,-33.691,-45.410,-220.215,0.000,0
1639023048.767,-37.109,-38.574,-41.016,-37.598,0.000,0
1639023048.771,-31.738,-36.621,-31.250,160.156,0.000,0
1639023048.775,-77.148,-24.414,-27.832,96.680,0.000,0
1639023048.778,-88.867,-22.949,-30.273,-107.422,0.000,0
1639023048.782,-69.336,-25.391,-28.809,-221.191,0.000,0
1639023048.786,-37.598,-23.926,-21.484,-97.656,0.000,0
1639023048.790,-27.344,-22.461,-20.508,109.375,0.000,0
1639023048.794,-56.641,-26.367,-26.855,130.859,0.000,0
1639023048.798,-64.941,-26.855,-36.133,-75.195,0.000,0
1639023048.802,-62.500,-24.414,-38.086,-240.234,0.000,0
1639023048.806,-47.852,-20.508,-33.203,-123.535,0.000,0
1639023048.809,-17.090,-13.672,-26.367,120.605,0.000,0
1639023048.813,-22.461,-23.926,-29.785,184.082,0.000,0
1639023048.817,-66.895,-29.297,-39.551,-25.879,0.000,0
1639023048.821,-83.008,-23.926,-39.551,-228.516,0.000,0
1639023048.825,-49.316,-25.391,-38.574,-139.648,0.000,0
1639023048.829,-30.762,-27.344,-31.250,88.379,0.000,0
1639023048.832,-54.199,-22.949,-24.414,153.320,0.000,0
1639023048.837,-77.148,-18.555,-27.344,-24.414,0.000,0
1639023048.840,-66.895,-20.020,-31.250,-204.102,0.000,0
1639023048.844,-46.875,-18.555,-27.832,-152.832,0.000,0
1639023048.848,-43.457,-15.137,-16.113,51.270,0.000,0
1639023048.852,-54.688,-20.020,-18.555,150.391,0.000,0
1639023048.856,-61.523,-32.227,-33.691,29.297,0.000,0
1639023048.859,-54.199,-20.020,-29.297,-153.809,0.000,0
1639023048.863,-31.250,6.836,-6.348,-156.250,0.000,0
1639023048.867,12.695,24.902,16.113,62.012,0.000,0
1639023048.871,31.738,31.250,24.414,225.098,0.000,0
1639023048.875,-6.348,31.738,21.973,107.422,0.000,0
1639023048.879,-22.461,34.668,23.926,-119.629,0.000,0
1639023048.883,9.277,42.480,32.715,-136.230,0.000,0
1639023048.887,41.016,47.852,44.434,62.012,0.000,0
1639023048.891,36.621,49.316,49.805,226.074,0.000,0
1639023048.895,9.277,49.316,46.387,129.395,0.000,0
1639023048.899,-22.461,41.016,33.203,-104.004,0.000,0
1639023048.902,-4.395,34.668,27.344,-147.949,0.000,0
1639023048.906,38.574,44.922,36.133,38.086,0.000,0
1639023048.910,37.598,51.758,43.945,210.938,0.000,0
1639023048.914,10.254,43.945,37.109,162.109,0.000,0
1639023048.918,-19.531,38.086,23.926,-53.223,0.000,0
1639023048.922,-24.902,38.574,23.926,-168.457,0.000,0
1639023048.925,13.672,38.086,32.715,-22.949,0.000,0
1639023048.930,38.574,37.109,32.227,195.312,0.000,0
1639023048.934,2.441,28.809,25.879,179.688,0.000,0
1639023048.937,-30.273,24.902,25.391,-45.410,0.000,0
1639023048.941,-18.066,23.438,20.996,-171.875,0.000,0
1639023048.945,18.555,20.020,15.625,-35.156,0.000,0
1639023048.949,31.250,16.113,10.742,181.641,0.000,0
1639023048.953,-6.348,14.648,13.672,180.664,0.000,0
1639023048.957,-41.016,13.184,7.812,-30.762,0.000,0
1639023048.960,-10.254,0.488,-7.324,-162.109,0.000,0
1639023048.964,17.090,1.465,-0.977,-74.219,0.000,0
1639023048.968,2.441,20.020,15.137,120.605,0.000,0
1639023048.972,-11.719,12.695,8.789,177.734,0.000,0
1639023048.976,-39.551,0.977,-2.930,-8.301,0.000,0
1639023048.980,-44.922,5.371,-2.441,-181.152,0.000,0
1639023048.984,-15.137,8.301,2.930,-106.934,0.000,0
1639023048.988,16.602,4.883,3.418,113.281,0.000,0
1639023048.992,2.441,1.953,-0.977,185.059,0.000,0
1639023048.996,-40.039,0.977,-6.836,7.324,0.000,0
1639023048.999,-39.551,0.488,-6.348,-168.945,0.000,0
1639023049.003,-12.207,3.418,0.488,-113.770,0.000,0
1639023049.007,18.555,8.789,8.789,107.422,0.000,0
1639023049.011,-2.441,14.648,9.766,197.266,0.000,0
1639023049.015,-52.246,9.277,0.977,34.180,0.000,0
1639023049.019,-47.852,0.000,-7.324,-152.344,0.000,0
1639023049.023,-13.672,-1.465,-6.348,-135.254,0.000,0
1639023049.027,2.441,11.230,5.859,49.805,0.000,0
1639023049.031,-3.418,18.555,9.277,206.055,0.000,0
1639023049.035,-35.645,10.742,-2.930,90.332,0.000,0
1639023049.038,-48.828,6.836,-9.277,-152.832,0.000,0
1639023049.042,-14.648,8.789,-3.906,-167.969,0.000,0
1639023049.046,-0.488,11.230,4.395,26.855,0.000,0
1639023049.050,-1.465,5.371,2.441,203.125,0.000,0
1639023049.054,-38.086,2.930,-5.859,116.211,0.000,0
1639023049.057,-88.379,7.812,-10.254,-147.949,0.000,0
1639023049.061,-45.898,8.301,-8.301,-204.590,0.000,0
1639023049.065,0.000,9.277,-1.465,-5.859,0.000,0
1639023049.070,-10.254,5.859,-1.465,180.664,0.000,0
1639023049.073,-40.527,0.977,-6.348,107.910,0.000,0
1639023049.077,-54.199,-4.883,-11.719,-104.980,0.000,0
1639023049.081,-34.180,-4.395,-9.277,-186.523,0.000,0
1639023049.085,-9.766,-0.977,-5.371,-26.367,0.000,0
1639023049.089,-11.719,-5.371,-7.812,194.824,0.000,0
1639023049.093,-31.738,-8.301,-10.742,147.949,0.000,0
1639023049.096,-46.387,-16.113,-20.508,-66.895,0.000,0
1639023049.100,-52.246,-13.672,-20.996,-187.988,0.000,0
1639023049.104,-36.133,0.488,-11.230,-73.242,0.000,0
1639023049.108,-11.719,1.465,-9.277,157.227,0.000,0
1639023049.112,-34.180,0.000,-9.766,157.227,0.000,0
1639023049.116,-74.707,5.859,-9.766,-72.266,0.000,0
1639023049.120,-58.105,9.766,-10.254,-216.797,0.000,0
1639023049.124,-21.484,10.254,-13.672,-104.004,0.000,0
1639023049.128,-13.672,14.648,-8.301,115.723,0.000,0
1639023049.131,-35.156,17.090,-2.930,149.902,0.000,0
1639023049.135,-59.570,11.719,-15.625,-36.621,0.000,0
1639023049.139,-41.504,2.441,-30.273,-187.012,0.000,0
1639023049.143,-19.531,7.324,-23.926,-104.980,0.000,0
1639023049.147,-26.367,21.973,-9.766,96.680,0.000,0
1639023049.151,-39.551,17.090,-16.602,166.992,0.000,0
1639023049.154,-74.219,11.230,-23.438,-9.277,0.000,0
1639023049.158,-78.613,14.160,-22.949,-211.914,0.000,0
1639023049.162,-42.480,18.555,-16.113,-168.457,0.000,0
1639023049.166,-28.809,18.555,-13.672,54.688,0.000,0
1639023049.170,-44.434,18.066,-19.043,165.039,0.000,0
1639023049.174,-64.941,18.066,-21.484,9.277,0.000,0
1639023049.178,-64.453,17.578,-20.508,-185.059,0.000,0
1639023049.182,-34.668,13.672,-18.066,-159.180,0.000,0
1639023049.185,-11.230,7.324,-18.066,56.641,0.000,0
1639023049.189,-29.785,14.648,-14.160,176.758,0.000,0
1639023049.193,-71.289,22.461,-8.301,41.016,0.000,0
1639023049.197,-73.730,15.625,-17.090,-169.434,0.000,0
1639023049.201,-44.434,14.648,-16.602,-173.828,0.000,0
1639023049.205,-24.902,15.625,-12.207,24.902,0.000,0
1639023049.209,-30.762,10.742,-11.719,151.367,0.000,0
1639023049.213,-63.965,7.324,-10.254,76.660,0.000,0
1639023049.216,-83.984,0.488,-16.113,-148.438,0.000,0
1639023049.220,-57.129,0.000,-14.160,-226.562,0.000,0
1639023049.224,-28.320,7.812,-8.789,-35.156,0.000,0
1639023049.228,-16.113,5.371,-9.766,188.477,0.000,0
1639023049.232,-40.039,0.488,-15.137,134.277,0.000,0
1639023049.236,-78.125,10.742,-19.043,-129.883,0.000,0
1639023049.239,-62.012,11.230,-22.949,-219.727,0.000,0
1639023049.243,-26.855,2.930,-20.508,-50.781,0.000,0
1639023049.247,-25.879,1.953,-15.137,142.090,0.000,0
1639023049.251,-58.594,3.906,-21.484,114.746,0.000,0
1639023049.256,-72.266,-1.465,-30.762,-108.398,0.000,0
1639023049.259,-49.316,-3.906,-30.273,-214.844,0.000,0
1639023049.263,-14.648,0.488,-24.414,-75.684,0.000,0
1639023049.267,-21.973,7.324,-18.066,115.723,0.000,0
1639023049.271,-47.852,1.953,-19.043,139.648,0.000,0
1639023049.275,-63.477,-14.648,-30.273,-57.129,0.000,0
1639023049.279,-62.988,-12.207,-28.320,-208.984,0.000,0
1639023049.282,-35.645,-4.883,-16.113,-114.746,0.000,0
1639023049.286,-23.438,-3.906,-12.695,100.098,0.000,0
1639023049.290,-41.016,-9.766,-19.043,154.297,0.000,0
1639023049.294,-82.031,-9.766,-19.043,-43.457,0.000,0
1639023049.298,-89.844,-8.301,-26.855,-221.680,0.000,0
1639023049.302,-63.477,-14.160,-27.832,-154.785,0.000,0
1639023049.306,-40.039,-10.742,-14.648,61.035,0.000,0
1639023049.310,-50.781,-6.348,-13.672,148.438,0.000,0
1639023049.314,-78.613,-13.672,-26.367,-9.277,0.000,0
1639023049.318,-81.543,-16.602,-34.180,-203.125,0.000,0
1639023049.322,-47.363,-21.973,-29.785,-156.738,0.000,0
1639023049.325,-28.809,-21.484,-26.367,56.152,0.000,0
1639023049.329,-40.527,-12.695,-19.531,151.855,0.000,0
1639023049.333,-56.152,-19.043,-27.832,26.855,0.000,0
1639023049.337,-77.637,-27.344,-38.086,-180.664,0.000,0
1639023049.341,-74.707,-16.602,-29.297,-202.637,0.000,0
1639023049.345,-48.340,-14.648,-23.438,13.184,0.000,0
1639023049.349,-56.152,-20.020,-25.391,148.926,0.000,0
1639023049.353,-89.355,-21.973,-29.785,23.438,0.000,0
1639023049.357,-89.844,-21.973,-32.715,-185.059,0.000,0
1639023049.361,-57.129,-22.461,-32.715,-206.543,0.000,0
1639023049.364,-35.156,-18.066,-26.367,-3.418,0.000,0
1639023049.368,-42.480,-18.555,-22.461,164.551,0.000,0
1639023049.372,-70.801,-19.531,-20.020,74.707,0.000,0
1639023049.376,-83.496,-16.602,-25.391,-147.461,0.000,0
1639023049.380,-47.852,-22.949,-34.180,-202.637,0.000,0
1639023049.384,-20.996,-16.113,-21.973,-36.133,0.000,0
1639023049.387,-25.879,0.977,-5.859,138.184,0.000,0
1639023049.391,-48.828,-2.441,-15.625,94.238,0.000,0
1639023049.396,-80.078,-12.695,-28.809,-127.930,0.000,0
1639023049.399,-75.684,-7.324,-28.809,-213.379,0.000,0
1639023049.403,-37.109,-1.465,-19.531,-44.434,0.000,0
1639023049.407,-22.949,-6.836,-9.766,144.043,0.000,0
1639023049.411,-40.039,-5.371,-10.254,127.441,0.000,0
1639023049.415,-66.895,-9.277,-21.484,-79.590,0.000,0
1639023049.419,-60.059,-8.301,-26.367,-207.031,0.000,0
1639023049.422,-15.137,-3.418,-20.020,-59.570,0.000,0
1639023049.426,-15.137,-0.977,-14.648,139.648,0.000,0
1639023049.430,-56.152,3.906,-14.160,130.859,0.000,0
1639023049.434,-81.055,2.930,-21.973,-61.523,0.000,0
1639023049.438,-48.340,-3.418,-29.297,-182.129,0.000,0
1639023049.442,-28.809,-1.953,-17.090,-77.637,0.000,0
1639023049.446,-42.969,5.371,0.977,107.422,0.000,0
1639023049.450,-54.199,-0.977,-3.418,151.367,0.000,0
1639023049.454,-83.008,-8.301,-9.766,-34.180,0.000,0
1639023049.458,-79.102,-6.348,-15.625,-208.496,0.000,0
1639023049.461,-44.922,-10.742,-19.043,-129.395,0.000,0
1639023049.465,-31.250,-14.648,-11.230,99.609,0.000,0
1639023049.469,-38.086,-10.742,-13.672,195.312,0.000,0
1639023049.473,-80.566,-9.277,-17.578,2.441,0.000,0
1639023049.477,-93.750,-5.859,-24.414,-217.773,0.000,0
1639023049.481,-42.969,-1.953,-22.461,-166.016,0.000,0
1639023049.484,-27.832,-8.301,-14.648,56.152,0.000,0
1639023049.489,-50.781,-6.836,-14.160,164.062,0.000,0
1639023049.493,-74.219,-5.859,-22.949,21.484,0.000,0
1639023049.496,-75.195,-12.695,-34.668,-160.156,0.000,0
1639023049.500,-38.086,-6.836,-34.180,-157.227,0.000,0
1639023049.504,-19.043,0.488,-24.414,14.648,0.000,0
1639023049.508,-26.855,3.418,-22.461,158.691,0.000,0
1639023049.512,-42.480,-2.930,-30.273,76.172,0.000,0
1639023049.516,-70.801,-15.137,-34.180,-144.043,0.000,0
1639023049.519,-75.684,-4.883,-29.297,-209.473,0.000,0
1639023049.523,-31.250,2.441,-24.902,-1.953,0.000,0
1639023049.527,-21.484,-0.488,-22.949,173.828,0.000,0
1639023049.531,-55.664,-2.441,-22.949,78.613,0.000,0
1639023049.535,-74.219,-2.930,-22.949,-139.160,0.000,0
1639023049.539,-60.059,-4.395,-24.414,-198.242,0.000,0
1639023049.543,-32.715,-4.395,-27.344,-29.785,0.000,0
1639023049.547,-35.156,-1.465,-19.531,145.020,0.000,0
1639023049.551,-70.312,-5.859,-18.066,92.773,0.000,0
1639023049.554,-80.078,-14.648,-29.785,-119.629,0.000,0
1639023049.558,-44.922,-22.461,-35.156,-202.637,0.000,0
1639023049.562,-20.020,-19.043,-28.320,-54.199,0.000,0
1639023049.566,-28.809,-4.883,-17.090,129.395,0.000,0
1639023049.570,-46.875,-5.859,-22.949,119.629,0.000,0
1639023049.574,-72.754,-11.230,-27.832,-81.055,0.000,0
1639023049.577,-72.266,-9.277,-23.438,-209.961,0.000,0
1639023049.582,-43.457,-3.906,-17.090,-95.703,0.000,0
1639023049.586,-27.832,-5.859,-12.695,120.605,0.000,0
1639023049.589,-45.898,-11.230,-17.090,140.625,0.000,0
1639023049.593,-85.449,-14.160,-26.367,-72.266,0.000,0
1639023049.597,-81.543,-18.555,-31.738,-230.957,0.000,0
1639023049.601,-25.391,-17.090,-29.785,-105.469,0.000,0
1639023049.605,-4.883,-8.789,-20.508,127.441,0.000,0
1639023049.609,-41.992,-3.418,-13.184,148.438,0.000,0
1639023049.612,-70.312,-7.812,-23.438,-35.156,0.000,0
1639023049.616,-68.359,-17.090,-28.809,-202.637,0.000,0
1639023049.620,-48.828,-17.578,-27.344,-146.484,0.000,0
1639023049.624,-34.668,-13.184,-18.066,74.707,0.000,0
1639023049.629,-50.293,-11.230,-13.672,164.551,0.000,0
1639023049.632,-82.031,-15.137,-22.461,-0.488,0.000,2
1639023049.636,-80.078,-13.184,-23.926,-208.984,0.000,0
1639023049.640,-46.387,-3.418,-14.160,-180.664,0.000,0
1639023049.644,-15.137,-5.859,-7.324,51.758,0.000,0
1639023049.648,-21.484,-14.160,-18.066,172.363,0.000,0
1639023049.652,-59.570,-12.207,-26.367,30.273,0.000,0
1639023049.655,-74.219,-11.719,-26.367,-191.895,0.000,0
1639023049.659,-47.852,-17.578,-27.832,-199.219,0.000,0
1639023049.663,-17.090,-18.066,-21.484,23.926,0.000,0
1639023049.667,-45.410,-11.719,-14.160,156.250,0.000,0
1639023049.671,-78.613,-10.742,-19.043,42.969,0.000,0
1639023049.675,-72.754,-18.555,-28.320,-158.691,0.000,0
1639023049.679,-60.059,-17.090,-28.320,-197.754,0.000,0
1639023049.683,-34.180,-10.742,-19.531,-15.625,0.000,0
1639023049.687,-30.762,-9.766,-13.672,153.809,0.000,0
1639023049.691,-66.895,-19.531,-27.832,80.078,0.000,0
1639023049.695,-70.801,-32.227,-42.969,-145.508,0.000,0
1639023049.698,-48.340,-29.297,-36.133,-214.355,0.000,0
1639023049.702,-35.156,-19.531,-22.949,-35.645,0.000,0
1639023049.706,-20.020,-24.414,-23.438,177.734,0.000,0
1639023049.710,-56.641,-28.809,-31.738,118.652,0.000,0
1639023049.714,-92.285,-25.879,-30.273,-133.789,0.000,0
1639023049.718,-61.523,-27.344,-33.203,-208.984,0.000,0
1639023049.722,-36.133,-25.391,-27.832,-58.105,0.000,0
1639023049.726,-34.180,-21.484,-17.090,139.160,0.000,0
1639023049.730,-57.129,-20.508,-17.090,123.047,0.000,0
1639023049.734,-73.730,-26.855,-29.297,-94.238,0.000,0
1639023049.737,-65.918,-28.809,-33.691,-223.145,0.000,0
1639023049.741,-38.574,-25.879,-24.902,-96.680,0.000,0
1639023049.745,-25.391,-26.367,-19.531,119.629,0.000,0
1639023049.749,-44.434,-26.367,-22.461,146.484,0.000,0
1639023049.753,-63.965,-33.691,-32.715,-45.898,0.000,0
1639023049.757,-70.801,-29.785,-26.855,-210.938,0.000,0
1639023049.760,-41.504,-16.113,-11.230,-117.676,0.000,0
1639023049.764,-10.742,-12.207,-12.207,112.305,0.000,0
1639023049.769,-46.387,-14.160,-16.113,163.086,0.000,0
1639023049.773,-78.125,-20.020,-23.926,-31.738,0.000,0
1639023049.776,-68.359,-18.555,-29.297,-211.914,0.000,0
1639023049.780,-31.738,-17.090,-27.344,-138.672,0.000,0
1639023049.784,-5.371,-20.996,-23.438,86.914,0.000,0
1639023049.788,-32.227,-22.461,-22.949,168.945,0.000,0
1639023049.792,-70.312,-24.414,-31.250,3.906,0.000,0
1639023049.796,-49.316,-32.715,-38.086,-179.688,0.000,0
1639023049.799,-13.184,-31.738,-33.691,-146.484,0.000,0
1639023049.803,-23.438,-22.949,-20.996,44.434,0.000,0
1639023049.807,-39.062,-23.438,-16.602,161.133,0.000,0
1639023049.811,-68.359,-29.297,-22.949,33.203,0.000,0
1639023049.815,-91.309,-35.156,-35.156,-187.988,0.000,0
1639023049.819,-67.871,-30.762,-32.715,-190.918,0.000,0
1639023049.823,-26.367,-29.785,-25.391,27.832,0.000,0
1639023049.827,-39.062,-35.645,-34.668,164.551,0.000,0
1639023049.831,-76.660,-37.109,-38.574,48.340,0.000,0
1639023049.835,-76.660,-35.645,-40.039,-158.203,0.000,0
1639023049.838,-51.270,-35.156,-41.016,-189.453,0.000,0
1639023049.842,-20.020,-40.527,-31.250,8.789,0.000,0
1639023049.846,-37.109,-35.645,-20.020,162.598,0.000,0
1639023049.850,-69.824,-31.738,-23.926,80.078,0.000,0
1639023049.854,-70.801,-37.109,-29.297,-134.277,0.000,0
1639023049.858,-62.012,-33.203,-24.902,-212.891,0.000,0
1639023049.862,-38.574,-21.484,-14.160,-47.363,0.000,0
1639023049.866,-23.438,-12.207,-8.301,149.902,0.000,0
1639023049.870,-41.992,-18.066,-12.695,110.352,0.000,0
1639023049.874,-63.477,-22.949,-15.625,-124.023,0.000,0
1639023049.877,-58.105,-20.508,-21.484,-228.516,0.000,0
1639023049.881,-37.598,-20.508,-20.020,-69.824,0.000,0
1639023049.885,-18.066,-21.973,-16.113,146.973,0.000,0
1639023049.889,-43.945,-24.414,-18.555,133.789,0.000,0
1639023049.893,-84.473,-18.066,-18.555,-97.656,0.000,0
1639023049.897,-60.547,-16.113,-18.066,-209.473,0.000,0
1639023049.900,-27.344,-15.625,-15.137,-82.031,0.000,0
1639023049.904,-20.996,-9.766,-13.184,125.000,0.000,0
1639023049.909,-45.410,-14.160,-17.090,142.578,0.000,0
1639023049.912,-76.172,-21.973,-21.484,-63.965,0.000,0
1639023049.916,-63.965,-28.809,-28.809,-212.402,0.000,0
1639023049.920,-45.410,-27.344,-28.320,-125.977,0.000,0
1639023049.924,-28.320,-21.484,-18.555,96.191,0.000,0
1639023049.928,-37.109,-23.926,-19.043,164.551,0.000,0
1639023049.932,-69.824,-28.809,-32.227,-6.836,0.000,0
1639023049.935,-69.336,-23.926,-31.250,-196.289,0.000,0
1639023049.939,-46.875,-12.695,-18.555,-144.043,0.000,0
1639023049.943,-16.113,-15.625,-14.648,95.703,0.000,0
1639023049.947,-24.902,-16.602,-17.578,177.734,0.000,0
1639023049.951,-61.035,-14.160,-23.926,5.371,0.000,0
1639023049.955,-63.477,-16.113,-32.227,-186.523,0.000,0
1639023049.959,-38.086,-15.137,-31.738,-144.531,0.000,0
1639023049.963,-12.695,-13.672,-26.367,68.359,0.000,0
1639023049.967,-22.461,-11.719,-24.414,173.828,0.000,0
1639023049.970,-63.477,-14.648,-32.227,34.668,0.000,0
1639023049.974,-62.500,-25.391,-43.945,-164.062,0.000,0
1639023049.978,-33.691,-19.043,-32.715,-165.039,0.000,0
1639023049.982,-28.320,-6.836,-15.625,16.113,0.000,0
1639023049.986,-34.668,-10.742,-18.555,159.668,0.000,0
1639023049.990,-41.992,-20.020,-28.320,72.266,0.000,0
1639023049.993,-62.500,-17.578,-32.715,-149.414,0.000,0
1639023049.997,-65.918,-13.184,-31.250,-207.031,0.000,0
1639023050.002,-25.391,-10.742,-26.367,-6.836,0.000,0
1639023050.006,-28.809,-9.766,-20.508,166.504,0.000,0
1639023050.010,-59.570,-11.230,-20.020,83.496,0.000,0
1639023050.013,-77.148,-17.578,-25.391,-151.855,0.000,0
1639023050.017,-63.477,-25.879,-26.855,-218.750,0.000,0
1639023050.021,-25.879,-22.949,-26.367,-27.344,0.000,0
1639023050.025,-27.832,-18.555,-21.973,152.344,0.000,0
1639023050.029,-59.082,-25.391,-24.902,94.238,0.000,0
1639023050.033,-67.871,-25.879,-28.809,-103.516,0.000,0
1639023050.036,-52.734,-22.949,-24.414,-193.359,0.000,0
1639023050.040,-45.410,-20.508,-13.672,-67.871,0.000,0
1639023050.044,-39.062,-16.113,-6.348,133.789,0.000,0
1639023050.049,-45.410,-19.531,-13.672,140.625,0.000,0
1639023050.053,-65.918,-23.926,-18.066,-65.430,0.000,0
1639023050.056,-62.500,-20.508,-19.531,-212.402,0.000,0
1639023050.060,-30.762,-19.531,-20.020,-92.773,0.000,0
1639023050.064,-10.254,-24.902,-17.578,131.348,0.000,0
1639023050.068,-35.156,-26.367,-23.926,147.949,0.000,0
1639023050.072,-62.500,-21.973,-28.320,-60.547,0.000,0
1639023050.076,-56.641,-16.602,-29.297,-224.121,0.000,0
1639023050.079,-19.043,-20.996,-28.320,-104.980,0.000,0
1639023050.083,-8.301,-22.461,-20.020,125.000,0.000,0
1639023050.087,-47.363,-11.719,-10.254,148.438,0.000,0
1639023050.091,-69.336,-12.207,-21.484,-36.133,0.000,0
1639023050.095,-62.500,-17.090,-32.715,-205.566,0.000,0
1639023050.099,-44.434,-12.695,-27.344,-145.996,0.000,0
1639023050.103,-24.414,-5.371,-20.020,66.406,0.000,0
1639023050.107,-33.691,-11.230,-20.508,158.203,0.000,0
1639023050.111,-59.082,-18.555,-28.809,-2.441,0.000,0
1639023050.115,-52.734,-16.602,-30.762,-203.613,0.000,0
1639023050.119,-35.645,-16.113,-29.785,-170.410,0.000,0
1639023050.122,-20.996,-12.695,-27.344,61.035,0.000,0
1639023050.126,-25.879,-14.648,-26.367,189.453,0.000,0
1639023050.130,-69.336,-13.672,-27.344,30.762,0.000,0
1639023050.134,-82.520,-12.207,-30.762,-196.289,0.000,0
1639023050.138,-43.945,-19.531,-32.715,-185.059,0.000,0
1639023050.142,-18.555,-21.484,-27.832,29.785,0.000,0
1639023050.146,-24.902,-11.719,-17.578,164.062,0.000,0
1639023050.150,-62.988,-9.766,-14.160,60.059,0.000,0
1639023050.154,-81.543,-18.555,-20.020,-148.438,0.000,0
1639023050.158,-42.969,-17.578,-21.484,-192.871,0.000,0
1639023050.161,-10.254,-15.625,-16.113,10.254,0.000,0
1639023050.165,-22.461,-17.090,-15.137,167.969,0.000,0
1639023050.169,-54.688,-27.344,-24.902,91.797,0.000,0
1639023050.173,-77.637,-34.180,-31.250,-130.859,0.000,0
1639023050.177,-69.336,-19.043,-25.391,-227.051,0.000,0
1639023050.181,-31.738,-12.695,-18.066,-45.410,0.000,0
1639023050.184,-20.996,-12.695,-12.207,141.602,0.000,0
1639023050.189,-47.363,-12.695,-12.695,103.516,0.000,0
1639023050.193,-74.219,-18.555,-19.531,-112.793,0.000,0
1639023050.197,-57.617,-20.020,-23.438,-208.984,0.000,0
1639023050.200,-25.391,-18.066,-20.508,-54.688,0.000,0
1639023050.204,-26.367,-17.090,-17.578,136.230,0.000,0
1639023050.208,-55.176,-21.484,-21.973,120.605,0.000,0
1639023050.212,-66.406,-25.391,-24.414,-90.332,0.000,0
1639023050.216,-42.969,-26.367,-26.367,-199.219,0.000,0
1639023050.220,-31.738,-25.879,-24.414,-93.750,0.000,0
1639023050.223,-29.297,-23.438,-16.602,99.609,0.000,0
1639023050.227,-42.969,-29.785,-24.902,134.766,0.000,0
1639023050.231,-71.777,-31.738,-30.762,-60.059,0.000,0
1639023050.236,-77.637,-27.832,-28.809,-218.262,0.000,0
1639023050.239,-40.039,-23.926,-19.531,-111.328,0.000,0
1639023050.243,-4.395,-19.531,-9.766,117.188,0.000,0
1639023050.247,-29.297,-22.949,-12.207,159.668,0.000,0
1639023050.251,-64.941,-25.879,-20.996,-35.156,0.000,0
1639023050.255,-56.641,-24.414,-24.414,-210.938,0.000,0
1639023050.259,-8.301,-28.320,-21.484,-123.047,0.000,0
1639023050.262,11.719,-29.785,-17.578,102.051,0.000,0
1639023050.266,-35.645,-18.555,-9.766,166.016,0.000,0
1639023050.270,-61.035,-19.531,-13.672,5.371,0.000,0
1639023050.274,-61.523,-32.227,-21.484,-181.641,0.000,0
1639023050.278,-52.734,-33.203,-20.020,-163.574,0.000,0
1639023050.282,-37.598,-22.461,-11.230,39.062,0.000,0
1639023050.286,-32.715,-24.414,-9.766,172.852,0.000,0
1639023050.290,-47.852,-33.203,-18.066,41.016,0.000,0
1639023050.294,-68.359,-35.156,-29.297,-180.664,0.000,0
1639023050.297,-50.781,-36.621,-27.344,-187.500,0.000,0
1639023050.301,-20.020,-38.574,-19.043,33.203,0.000,0
1639023050.305,-25.391,-45.898,-21.484,194.336,0.000,0
1639023050.309,-76.660,-43.945,-22.949,72.754,0.000,0
1639023050.313,-92.773,-37.109,-23.438,-171.875,0.000,0
1639023050.317,-53.223,-38.086,-22.461,-203.613,0.000,0
1639023050.321,-28.320,-33.691,-12.695,5.371,0.000,0
1639023050.324,-40.527,-31.250,-10.742,155.762,0.000,0
1639023050.329,-72.754,-35.645,-15.625,66.406,0.000,0
1639023050.332,-74.219,-41.504,-21.973,-139.160,0.000,0
1639023050.336,-58.594,-40.039,-28.809,-210.449,0.000,0
1639023050.340,-45.898,-36.133,-22.949,-47.852,0.000,0
1639023050.344,-43.945,-36.133,-18.555,147.949,0.000,0
1639023050.348,-61.523,-46.387,-37.598,122.559,0.000,0
1639023050.352,-75.195,-51.270,-42.480,-102.051,0.000,0
1639023050.356,-81.055,-39.551,-29.297,-239.258,0.000,0
1639023050.359,-55.176,-35.645,-22.461,-87.891,0.000,0
1639023050.363,-34.668,-41.016,-15.625,137.207,0.000,0
1639023050.367,-53.223,-42.969,-19.043,114.258,0.000,0
1639023050.371,-80.566,-38.574,-26.367,-101.074,0.000,0
1639023050.376,-72.754,-39.551,-31.738,-223.633,0.000,0
1639023050.379,-45.410,-39.551,-28.809,-108.887,0.000,0
1639023050.383,-42.969,-39.062,-23.438,105.957,0.000,1
1639023050.387,-70.801,-42.480,-25.879,125.000,0.000,0
1639023050.391,-79.590,-49.316,-33.691,-83.008,0.000,0
1639023050.395,-67.383,-61.035,-36.621,-218.750,0.000,0
1639023050.399,-55.664,-60.547,-31.738,-129.883,0.000,0
1639023050.402,-41.992,-48.828,-21.973,84.473,0.000,0
1639023050.406,-58.105,-46.387,-23.438,145.996,0.000,0
1639023050.410,-80.566,-54.688,-38.574,-31.250,0.000,0
1639023050.414,-84.961,-46.875,-38.574,-216.309,0.000,0
1639023050.418,-64.453,-38.574,-25.391,-157.715,0.000,0
1639023050.422,-30.762,-39.551,-21.973,74.219,0.000,0
1639023050.426,-54.199,-41.504,-22.949,172.852,0.000,0
1639023050.430,-95.215,-42.480,-25.879,-42.480,0.000,0
1639023050.434,-70.312,-45.410,-34.180,-224.609,0.000,0
1639023050.438,-45.898,-46.875,-26.855,-62.012,0.000,0
1639023050.442,-33.203,-43.457,-25.879,128.418,0.000,0
1639023050.445,-59.082,-41.992,-28.320,95.703,0.000,0
1639023050.449,-92.773,-47.852,-32.715,-99.609,0.000,0
1639023050.453,-67.383,-54.688,-41.016,-211.914,0.000,0
1639023050.457,-61.523,-43.457,-32.715,-113.770,0.000,0
1639023050.461,-60.059,-36.133,-23.926,85.449,0.000,0
1639023050.465,-59.570,-38.086,-26.367,127.441,0.000,0
1639023050.469,-96.680,-39.551,-31.250,-70.312,0.000,0
1639023050.473,-90.820,-41.016,-33.691,-241.211,0.000,0
1639023050.477,-51.270,-36.621,-26.367,-145.996,0.000,0
1639023050.481,-32.227,-33.691,-22.949,86.914,0.000,0
1639023050.485,-52.246,-33.203,-25.879,154.785,0.000,0
1639023050.488,-73.242,-33.691,-31.250,-30.762,0.000,0
1639023050.492,-62.988,-34.180,-37.598,-215.820,0.000,0
1639023050.496,-35.156,-36.133,-33.203,-142.578,0.000,0
1639023050.500,-30.762,-35.156,-24.414,84.961,0.000,0
1639023050.504,-62.500,-28.320,-17.578,153.809,0.000,0
1639023050.508,-85.938,-35.645,-24.902,-7.324,0.000,0
1639023050.511,-72.754,-38.574,-33.203,-189.453,0.000,0
1639023050.516,-46.387,-32.227,-27.344,-178.711,0.000,0
1639023050.520,-31.250,-26.367,-20.996,31.738,0.000,0
1639023050.524,-47.363,-33.203,-19.531,175.293,0.000,0
1639023050.527,-73.730,-42.480,-27.344,42.480,0.000,0
1639023050.531,-91.309,-36.621,-34.668,-176.270,0.000,0
1639023050.535,-62.012,-33.691,-33.203,-178.711,0.000,0
1639023050.539,-24.902,-33.691,-25.879,32.227,0.000,0
1639023050.543,-24.902,-42.969,-32.715,195.801,0.000,0
1639023050.547,-63.477,-37.109,-39.551,68.848,0.000,0
1639023050.551,-87.891,-29.297,-35.156,-165.039,0.000,0
1639023050.554,-52.734,-29.297,-32.715,-206.055,0.000,0
1639023050.558,-18.555,-24.902,-27.344,-19.043,0.000,0
1639023050.563,-43.457,-23.438,-22.461,137.207,0.000,0
1639023050.567,-74.219,-29.785,-27.344,61.523,0.000,0
1639023050.570,-77.148,-36.133,-34.668,-143.066,0.000,0
1639023050.574,-72.266,-32.227,-35.645,-229.980,0.000,0
1639023050.578,-41.504,-29.785,-25.879,-55.664,0.000,0
1639023050.582,-36.133,-25.391,-19.531,155.762,0.000,0
1639023050.586,-69.336,-29.785,-34.668,119.629,0.000,0
1639023050.590,-90.820,-34.180,-40.527,-116.211,0.000,0
1639023050.593,-80.566,-18.066,-34.180,-246.094,0.000,0
1639023050.597,-48.828,-14.160,-27.344,-80.078,0.000,0
1639023050.601,-17.578,-18.066,-25.879,142.090,0.000,0
1639023050.605,-42.969,-15.137,-31.250,127.441,0.000,0
1639023050.610,-69.336,-14.160,-33.691,-84.473,0.000,0
1639023050.614,-59.082,-14.160,-33.203,-222.656,0.000,0
1639023050.617,-42.969,-18.066,-27.344,-95.703,0.000,0
1639023050.621,-41.016,-16.602,-15.625,114.258,0.000,0
1639023050.625,-49.805,-12.207,-18.066,134.277,0.000,0
1639023050.629,-65.430,-16.113,-28.320,-47.363,0.000,0
1639023050.633,-50.293,-25.879,-35.156,-182.129,0.000,0
1639023050.637,-34.668,-14.648,-24.902,-114.746,0.000,0
1639023050.640,-43.457,-3.418,-14.648,86.914,0.000,0
1639023050.644,-45.898,-4.395,-17.090,166.016,0.000,0
1639023050.648,-79.590,-12.695,-24.414,-23.926,0.000,0
1639023050.652,-83.008,-19.531,-29.785,-219.238,0.000,0
1639023050.656,-51.270,-17.090,-33.203,-156.738,0.000,0
1639023050.660,-26.367,-19.043,-28.809,75.684,0.000,0
1639023050.664,-45.410,-21.484,-28.320,169.922,0.000,0
1639023050.668,-71.289,-22.949,-29.297,6.836,0.000,0
1639023050.672,-84.473,-30.273,-30.273,-186.523,0.000,0
1639023050.676,-50.781,-28.320,-31.738,-150.879,0.000,0
1639023050.679,-6.348,-18.555,-24.414,61.035,0.000,0
1639023050.683,-29.785,-14.160,-16.113,179.199,0.000,0
1639023050.687,-77.637,-11.230,-20.508,22.949,0.000,0
1639023050.691,-48.828,-20.996,-32.227,-173.828,0.000,0
1639023050.695,-21.484,-22.461,-31.250,-164.551,0.000,0
1639023050.699,-37.598,-13.184,-20.996,20.020,0.000,0
1639023050.703,-34.180,-16.113,-20.996,168.457,0.000,0
1639023050.707,-60.059,-23.926,-23.926,68.359,0.000,0
1639023050.711,-85.449,-24.414,-24.414,-152.344,0.000,0
1639023050.715,-63.477,-20.020,-24.414,-196.289,0.000,0
1639023050.719,-26.367,-22.949,-19.531,-10.254,0.000,0
1639023050.722,-19.043,-25.879,-20.508,180.176,0.000,0
1639023050.726,-36.621,-24.414,-26.855,94.238,0.000,0
1639023050.730,-75.195,-26.855,-31.738,-151.367,0.000,0
1639023050.734,-70.312,-31.250,-30.273,-215.820,0.000,0
1639023050.738,-19.043,-34.180,-26.367,-20.508,0.000,0
1639023050.742,-25.879,-20.996,-16.113,153.809,0.000,0
1639023050.746,-77.148,-20.996,-19.043,109.863,0.000,0
1639023050.750,-88.867,-33.691,-31.738,-104.492,0.000,0
1639023050.754,-62.988,-27.832,-29.785,-239.746,0.000,0
1639023050.758,-40.527,-21.484,-28.320,-91.309,0.000,0
1639023050.762,-41.016,-23.438,-26.855,124.512,0.000,0
1639023050.766,-57.617,-29.297,-28.320,106.934,0.000,0
1639023050.769,-82.520,-39.062,-39.551,-96.680,0.000,0
1639023050.773,-72.266,-39.062,-40.039,-218.750,0.000,0
1639023050.777,-36.133,-39.062,-31.250,-105.957,0.000,0
1639023050.781,-15.625,-41.504,-28.320,125.000,0.000,0
1639023050.785,-55.664,-37.598,-32.227,154.785,0.000,0
1639023050.789,-101.562,-32.227,-33.691,-72.266,0.000,0
1639023050.792,-76.172,-34.668,-33.691,-221.191,0.000,0
1639023050.797,-44.434,-32.715,-34.180,-122.559,0.000,0
1639023050.801,-33.691,-25.391,-27.344,89.844,0.000,0
1639023050.805,-41.992,-27.832,-28.809,142.578,0.000,0
1639023050.809,-76.660,-35.156,-39.551,-39.551,0.000,0
1639023050.812,-100.586,-40.527,-48.340,-197.754,0.000,0
1639023050.816,-69.336,-41.016,-44.922,-132.812,0.000,0
1639023050.820,-42.969,-30.762,-32.227,67.871,0.000,0
1639023050.824,-63.965,-31.738,-31.250,144.043,0.000,0
1639023050.828,-73.730,-49.316,-47.852,-0.977,0.000,0
1639023050.832,-100.586,-41.992,-45.410,-211.914,0.000,0
1639023050.835,-89.355,-24.414,-25.391,-194.824,0.000,0
1639023050.839,-48.828,-24.902,-22.461,32.715,0.000,0
1639023050.844,-51.758,-28.809,-28.809,162.598,0.000,0
1639023050.848,-89.844,-25.391,-30.273,27.344,0.000,0
1639023050.852,-108.887,-31.738,-34.180,-183.105,0.000,0
1639023050.855,-90.332,-37.598,-33.203,-193.359,0.000,0
1639023050.859,-59.570,-35.645,-27.344,19.531,0.000,0
1639023050.863,-59.570,-32.715,-25.879,166.992,0.000,0
1639023050.867,-95.703,-26.367,-30.273,63.477,0.000,0
1639023050.871,-104.492,-31.250,-41.016,-139.160,0.000,0
1639023050.875,-90.332,-35.645,-41.504,-191.895,0.000,0
1639023050.878,-73.730,-22.949,-26.367,-20.508,0.000,0
1639023050.882,-74.707,-15.137,-14.648,159.668,0.000,0
1639023050.886,-111.328,-18.066,-19.043,102.539,0.000,0
1639023050.891,-128.418,-23.926,-30.762,-139.160,0.000,0
1639023050.894,-106.934,-19.531,-29.297,-229.004,0.000,0
1639023050.898,-77.148,-11.230,-20.996,-32.715,0.000,0
1639023050.902,-52.246,-11.719,-21.484,177.734,0.000,0
1639023050.906,-94.727,-10.742,-24.902,117.188,0.000,0
1639023050.910,-128.906,-11.230,-34.180,-109.375,0.000,0
1639023050.914,-104.980,-13.184,-35.156,-205.566,0.000,0
1639023050.918,-61.035,-17.090,-26.367,-33.203,0.000,0
1639023050.921,-72.266,-9.277,-10.254,155.762,0.000,0
1639023050.925,-109.375,-3.906,-8.301,131.836,0.000,0
1639023050.929,-129.395,-13.184,-24.902,-75.195,0.000,0
1639023050.933,-119.629,-15.625,-31.250,-220.703,0.000,0
1639023050.937,-100.586,-13.672,-24.902,-112.793,0.000,0
1639023050.941,-90.332,-10.254,-20.508,106.445,0.000,0
1639023050.945,-110.840,-6.836,-21.973,139.648,0.000,0
1639023050.949,-157.227,-8.301,-26.367,-75.684,0.000,0
1639023050.953,-155.273,-8.789,-29.785,-232.910,0.000,0
1639023050.957,-105.469,-10.254,-26.367,-125.000,0.000,0
1639023050.960,-81.055,-12.207,-20.996,91.797,0.000,0
1639023050.964,-104.492,-13.184,-26.855,157.715,0.000,0
1639023050.968,-147.949,-11.230,-31.250,-35.156,0.000,0
1639023050.972,-161.133,-9.766,-35.156,-225.586,0.000,0
1639023050.976,-115.723,-11.230,-37.109,-147.461,0.000,0
1639023050.980,-93.750,-8.789,-27.344,57.129,0.000,0
1639023050.984,-119.141,-0.488,-21.973,146.484,0.000,0
1639023050.988,-146.973,-5.859,-32.715,0.000,0.000,0
1639023050.992,-150.879,-10.742,-41.504,-202.637,0.000,0
1639023050.996,-121.582,-0.977,-34.668,-184.082,0.000,0
1639023051.000,-98.633,8.301,-25.391,30.273,0.000,0
1639023051.004,-112.305,0.000,-29.297,160.156,0.000,0
1639023051.007,-135.742,-13.672,-35.645,33.691,0.000,0
1639023051.011,-159.180,-7.812,-35.645,-199.219,0.000,0
1639023051.015,-149.414,0.000,-36.133,-210.449,0.000,0
1639023051.019,-114.746,-6.836,-36.133,-10.254,0.000,0
1639023051.023,-125.000,-5.371,-26.855,125.488,0.000,0
1639023051.027,-151.367,-3.418,-29.297,37.109,0.000,0
1639023051.031,-165.039,-11.230,-36.133,-181.152,0.000,0
1639023051.035,-143.555,-12.207,-38.574,-216.309,0.000,0
1639023051.039,-103.516,-3.418,-28.320,-34.668,0.000,0
1639023051.042,-106.934,0.488,-13.672,131.836,0.000,0
1639023051.046,-129.395,-6.348,-20.020,73.730,0.000,0
1639023051.050,-145.020,-17.090,-34.180,-146.973,0.000,0
1639023051.054,-137.207,-15.625,-35.645,-209.473,0.000,0
1639023051.058,-110.352,-8.301,-26.367,-34.668,0.000,0
1639023051.062,-103.516,-1.465,-14.648,134.766,0.000,0
1639023051.066,-114.746,0.488,-16.113,97.656,0.000,0
1639023051.069,-133.789,-6.348,-28.809,-117.676,0.000,0
1639023051.073,-131.836,-2.441,-30.273,-223.145,0.000,0
1639023051.078,-112.305,0.000,-26.855,-73.730,0.000,0
1639023051.082,-110.352,-0.488,-23.438,119.629,0.000,0
1639023051.086,-125.488,2.930,-20.996,107.910,0.000,0
1639023051.089,-147.461,-1.953,-25.879,-104.004,0.000,0
1639023051.093,-127.930,1.953,-23.926,-219.727,0.000,0
1639023051.097,-82.520,6.836,-16.113,-92.285,0.000,0
1639023051.101,-78.125,9.277,-11.719,115.723,0.000,0
1639023051.105,-128.418,12.695,-15.137,131.836,0.000,0
1639023051.109,-149.902,7.324,-27.344,-63.477,0.000,0
1639023051.113,-123.047,-3.906,-38.086,-213.379,0.000,0
1639023051.116,-99.121,0.977,-26.855,-167.969,0.000,0
1639023051.120,-83.008,5.371,-12.695,48.340,0.000,0
1639023051.125,-100.098,1.465,-16.113,141.602,0.000,0
1639023051.129,-142.090,-3.906,-23.926,-44.434,0.000,0
1639023051.132,-148.438,-5.859,-30.762,-236.816,0.000,0
1639023051.136,-107.910,-5.859,-31.738,-174.316,0.000,0
1639023051.140,-82.031,-2.930,-25.879,55.664,0.000,0
1639023051.144,-95.703,-2.930,-26.855,148.438,0.000,0
1639023051.148,-125.488,-6.348,-30.273,-1.465,0.000,0
1639023051.152,-124.512,-7.324,-33.691,-208.008,0.000,0
1639023051.156,-104.004,-11.230,-30.273,-181.152,0.000,0
1639023051.159,-74.219,-8.789,-17.090,36.621,0.000,0
1639023051.163,-83.008,-1.953,-11.719,147.949,0.000,0
1639023051.167,-128.418,-4.395,-20.996,18.066,0.000,0
1639023051.172,-125.488,-11.230,-29.297,-192.383,0.000,0
1639023051.175,-99.121,-7.324,-25.391,-201.660,0.000,0
1639023051.179,-84.961,1.465,-16.113,1.465,0.000,0
1639023051.183,-73.242,4.395,-15.137,145.996,0.000,0
1639023051.187,-98.145,1.953,-23.926,40.527,0.000,0
1639023051.191,-113.281,0.488,-34.668,-171.387,0.000,0
1639023051.195,-100.098,4.395,-33.203,-208.984,0.000,0
1639023051.199,-79.590,7.324,-28.809,-26.855,0.000,0
1639023051.202,-69.336,1.953,-29.297,162.598,0.000,0
1639023051.206,-111.816,-0.488,-28.320,80.566,0.000,0
1639023051.210,-130.859,3.906,-30.273,-166.504,0.000,0
1639023051.214,-100.098,5.859,-27.344,-238.770,0.000,0
1639023051.218,-67.871,3.418,-24.902,-67.383,0.000,0
1639023051.222,-70.312,5.859,-22.461,125.488,0.000,0
1639023051.226,-106.934,-0.977,-27.344,92.773,0.000,0
1639023051.230,-119.629,-5.859,-40.039,-117.676,0.000,0
1639023051.234,-95.215,2.441,-35.156,-232.910,0.000,0
1639023051.238,-61.035,2.441,-23.926,-86.914,0.000,0
1639023051.242,-65.430,0.000,-22.949,124.023,0.000,0
1639023051.245,-90.332,-3.418,-25.879,122.070,0.000,1
1639023051.249,-105.469,-5.859,-34.180,-79.590,0.000,0
1639023051.253,-104.004,-1.953,-37.598,-235.840,0.000,0
1639023051.257,-75.195,0.977,-22.949,-122.070,0.000,0
1639023051.261,-62.988,0.000,-14.160,109.375,0.000,0
1639023051.265,-87.402,-1.953,-16.602,137.207,0.000,0
1639023051.269,-115.234,-0.977,-21.484,-61.523,0.000,0
1639023051.273,-85.449,0.000,-22.949,-208.984,0.000,0
1639023051.277,-58.105,2.441,-18.066,-129.395,0.000,0
1639023051.281,-62.012,8.789,-7.812,84.473,0.000,0
1639023051.284,-69.824,4.395,-9.277,161.133,0.000,0
1639023051.288,-90.332,0.488,-19.531,-14.160,0.000,0
1639023051.292,-73.730,-1.465,-25.879,-176.270,0.000,0
1639023051.296,-62.500,9.277,-11.719,-154.297,0.000,0
1639023051.300,-59.570,20.508,2.930,44.922,0.000,0
1639023051.304,-59.570,15.137,2.441,174.316,0.000,0
1639023051.308,-83.008,7.324,-2.930,13.672,0.000,0
1639023051.312,-94.727,11.719,-9.277,-187.012,0.000,0
1639023051.316,-76.660,12.207,-9.766,-163.574,0.000,0
1639023051.320,-40.039,13.184,-1.465,40.039,0.000,0
1639023051.324,-45.898,16.602,4.395,163.574,0.000,0
1639023051.327,-82.520,13.184,-2.930,21.973,0.000,0
1639023051.331,-104.004,3.418,-15.625,-185.059,0.000,0
1639023051.335,-77.637,1.465,-13.672,-183.594,0.000,0
1639023051.339,-38.086,9.766,-6.836,20.996,0.000,0
1639023051.343,-72.754,16.602,-0.488,163.574,0.000,0
1639023051.347,-109.375,8.301,-7.324,50.781,0.000,0
1639023051.351,-98.633,-0.977,-19.043,-158.203,0.000,0
1639023051.354,-87.402,3.906,-13.184,-199.707,0.000,0
1639023051.359,-67.383,11.230,0.000,-27.832,0.000,0
1639023051.363,-51.270,11.719,8.301,141.602,0.000,0
1639023051.367,-66.895,4.883,1.953,87.891,0.000,0
1639023051.371,-87.891,1.465,-13.184,-130.859,0.000,0
1639023051.374,-85.449,4.883,-17.578,-223.145,0.000,0
1639023051.378,-38.086,5.371,-13.672,-46.875,0.000,0
1639023051.382,-21.484,-1.465,-15.625,171.387,0.000,0
1639023051.386,-96.191,-0.488,-16.113,116.699,0.000,0
1639023051.390,-120.605,-0.977,-18.555,-126.953,0.000,0
1639023051.394,-88.379,-2.930,-19.043,-226.562,0.000,0
1639023051.398,-58.594,-4.395,-11.230,-75.684,0.000,0
1639023051.401,-54.199,-1.953,-5.859,122.070,0.000,0
1639023051.406,-78.613,2.930,-7.324,122.070,0.000,0
1639023051.409,-93.262,-0.488,-17.578,-92.773,0.000,0
1639023051.413,-86.426,-7.812,-20.508,-237.793,0.000,0
1639023051.417,-59.570,0.000,-11.230,-109.375,0.000,0
1639023051.421,-54.199,2.930,-5.859,124.023,0.000,0
1639023051.425,-74.707,-5.371,-13.184,155.762,0.000,0
1639023051.429,-85.449,-9.277,-18.555,-40.527,0.000,0
1639023051.433,-80.566,-12.695,-20.508,-212.891,0.000,0
1639023051.436,-59.570,-6.836,-16.602,-144.531,0.000,0
1639023051.440,-36.621,-10.254,-13.184,87.891,0.000,0
1639023051.444,-56.152,-14.648,-11.719,154.785,0.000,0
1639023051.448,-92.285,-6.348,-8.789,-41.016,0.000,0
1639023051.453,-95.215,-3.418,-9.277,-212.402,0.000,0
1639023051.456,-55.176,-2.930,-7.812,-148.926,0.000,0
1639023051.460,-46.875,0.977,-3.906,60.059,0.000,0
1639023051.464,-64.453,1.465,-3.906,158.203,0.000,0
1639023051.468,-82.031,-6.348,-10.254,10.254,0.000,0
1639023051.472,-81.543,-15.137,-26.367,-183.105,0.000,0
1639023051.476,-63.477,-15.137,-23.438,-185.059,0.000,0
1639023051.480,-62.012,-8.789,-5.371,22.461,0.000,0
1639023051.483,-64.453,-8.789,-8.301,165.039,0.000,0
1639023051.487,-72.754,-15.625,-22.461,54.199,0.000,0
1639023051.491,-92.285,-8.301,-21.484,-180.176,0.000,0
1639023051.495,-77.148,-2.441,-16.602,-208.496,0.000,0
1639023051.499,-45.898,-5.859,-15.137,15.137,0.000,0
1639023051.503,-39.551,-2.930,-8.301,172.363,0.000,0
1639023051.507,-62.012,-2.930,-13.672,62.500,0.000,0
1639023051.511,-87.891,-6.836,-19.043,-166.016,0.000,0
1639023051.515,-59.570,-10.742,-20.020,-205.566,0.000,0
1639023051.519,-30.762,-12.695,-20.020,-10.254,0.000,0
1639023051.523,-44.922,-14.648,-13.672,152.832,0.000,0
1639023051.526,-67.383,-13.184,-14.648,75.195,0.000,0
1639023051.530,-79.102,-18.555,-27.344,-131.836,0.000,0
1639023051.534,-75.195,-21.484,-31.738,-203.125,0.000,0
1639023051.538,-77.148,-10.742,-20.996,-68.359,0.000,0
1639023051.542,-64.453,-11.230,-16.113,138.672,0.000,0
1639023051.546,-59.570,-24.902,-26.855,109.863,0.000,0
1639023051.550,-89.844,-26.367,-35.156,-133.789,0.000,0
1639023051.554,-69.336,-17.090,-25.391,-242.676,0.000,0
1639023051.558,-16.113,-10.742,-17.090,-69.336,0.000,0
1639023051.562,-25.391,-13.672,-14.648,138.184,0.000,0
1639023051.566,-75.195,-20.508,-21.484,112.305,0.000,0
1639023051.569,-105.469,-23.926,-34.668,-100.586,0.000,0
1639023051.573,-87.402,-22.949,-34.668,-252.930,0.000,0
1639023051.577,-42.480,-31.738,-32.227,-101.562,0.000,0
1639023051.581,-53.711,-27.344,-22.461,105.957,0.000,0
1639023051.585,-82.520,-15.625,-17.578,116.699,0.000,0
1639023051.589,-93.262,-22.949,-25.391,-51.270,0.000,0
1639023051.593,-92.285,-26.855,-25.879,-212.891,0.000,0
1639023051.597,-50.781,-18.555,-18.066,-141.113,0.000,0
1639023051.601,-25.391,-11.230,-15.625,84.961,0.000,0
1639023051.605,-48.828,-12.207,-18.555,155.273,0.000,0
1639023051.609,-79.590,-14.160,-17.090,-22.949,0.000,0
1639023051.612,-86.426,-16.113,-23.926,-208.984,0.000,0
1639023051.616,-59.570,-13.184,-28.320,-166.016,0.000,0
1639023051.620,-32.227,-18.555,-28.809,67.383,0.000,0
1639023051.624,-54.199,-23.438,-27.832,168.457,0.000,0
1639023051.628,-91.797,-16.113,-24.902,-17.090,0.000,0
1639023051.632,-103.516,-18.555,-31.738,-218.750,0.000,0
1639023051.636,-76.172,-27.344,-34.668,-190.430,0.000,0
1639023051.640,-50.781,-18.555,-21.973,17.578,0.000,0
1639023051.644,-62.988,-10.742,-20.508,152.344,0.000,0
1639023051.648,-85.938,-16.602,-25.879,29.785,0.000,0
1639023051.652,-90.332,-23.926,-33.203,-189.453,0.000,0
1639023051.655,-68.359,-23.926,-34.668,-204.102,0.000,0
1639023051.659,-44.922,-23.438,-28.809,8.789,0.000,0
1639023051.663,-53.223,-24.414,-25.879,161.621,0.000,0
1639023051.667,-62.988,-31.738,-28.809,76.660,0.000,0
1639023051.671,-91.309,-26.855,-30.762,-166.504,0.000,0
1639023051.675,-79.102,-14.160,-26.367,-232.422,0.000,0
1639023051.679,-42.480,-16.113,-21.484,-23.438,0.000,0
1639023051.682,-51.270,-16.113,-20.996,147.949,0.000,0
1639023051.687,-78.125,-16.602,-28.809,72.266,0.000,0
1639023051.691,-95.215,-20.996,-34.180,-140.625,0.000,0
1639023051.694,-64.453,-20.996,-33.203,-214.844,0.000,0
1639023051.698,-34.180,-21.973,-28.320,-58.105,0.000,0
1639023051.702,-43.945,-17.090,-19.531,132.324,0.000,0
1639023051.706,-70.312,-18.555,-26.855,106.445,0.000,0
1639023051.710,-88.867,-24.902,-36.621,-99.121,0.000,0
1639023051.714,-65.918,-18.555,-28.320,-208.496,0.000,0
1639023051.718,-27.832,-8.789,-13.184,-81.543,0.000,0
1639023051.721,-30.273,-14.160,-11.719,127.441,0.000,0
1639023051.725,-62.500,-19.043,-13.184,139.160,0.000,0
1639023051.729,-92.285,-18.066,-12.207,-77.148,0.000,0
1639023051.734,-90.820,-18.066,-14.160,-227.051,0.000,0
1639023051.738,-49.805,-19.043,-13.184,-106.445,0.000,0
1639023051.741,-17.090,-14.648,-11.230,119.141,0.000,0
1639023051.745,-41.992,-8.789,-12.207,157.227,0.000,0
1639023051.749,-83.008,-11.719,-22.461,-41.992,0.000,0
1639023051.753,-64.941,-16.113,-30.762,-203.125,0.000,0
1639023051.757,-25.391,-16.113,-32.715,-99.609,0.000,0
1639023051.761,-43.457,-6.348,-19.531,95.703,0.000,0
1639023051.765,-71.289,-8.789,-10.254,145.508,0.000,0
1639023051.768,-83.008,-19.043,-24.414,-22.949,0.000,0
1639023051.772,-80.566,-19.531,-29.297,-202.637,0.000,0
1639023051.776,-65.918,-18.066,-22.461,-154.785,0.000,0
1639023051.780,-47.363,-21.484,-25.391,54.688,0.000,0
1639023051.784,-38.574,-22.461,-23.438,173.828,0.000,0
1639023051.788,-64.941,-20.996,-20.508,21.973,0.000,0
1639023051.792,-82.520,-20.020,-24.902,-196.289,0.000,0
1639023051.796,-44.434,-20.020,-22.949,-168.945,0.000,0
1639023051.800,-0.488,-22.949,-16.602,58.105,0.000,0
1639023051.804,-22.949,-22.949,-15.625,179.199,0.000,0
1639023051.807,-75.684,-22.461,-24.902,47.363,0.000,0
1639023051.811,-96.191,-22.949,-24.414,-169.434,0.000,0
1639023051.815,-65.430,-32.715,-33.203,-183.105,0.000,0
1639023051.819,-40.039,-40.039,-42.969,4.395,0.000,0
1639023051.823,-70.312,-37.598,-47.852,122.559,0.000,0
1639023051.827,-113.770,-40.527,-59.570,18.066,0.000,0
1639023051.831,-114.746,-54.199,-66.406,-180.176,0.000,0
1639023051.835,-84.473,-58.594,-61.523,-232.910,0.000,0
1639023051.839,-52.734,-58.594,-61.523,-54.688,0.000,0
1639023051.843,-63.965,-60.547,-62.988,128.906,0.000,0
1639023051.847,-100.586,-68.359,-73.242,59.082,0.000,0
1639023051.851,-135.742,-77.148,-89.355,-172.363,0.000,0
1639023051.854,-127.441,-69.336,-80.566,-270.508,0.000,0
1639023051.858,-90.820,-66.406,-72.754,-97.656,0.000,0
1639023051.862,-75.684,-71.289,-74.219,118.164,0.000,0
1639023051.866,-122.559,-67.383,-73.730,64.453,0.000,0
1639023051.870,-150.391,-65.918,-79.590,-159.180,0.000,0
1639023051.874,-118.164,-62.988,-81.055,-261.230,0.000,0
1639023051.878,-82.031,-54.688,-72.754,-111.816,0.000,0
1639023051.882,-71.777,-53.711,-58.594,100.586,0.000,0
1639023051.886,-89.844,-60.059,-60.059,94.727,0.000,0
1639023051.890,-96.680,-63.965,-67.383,-108.887,0.000,0
1639023051.894,-96.191,-69.824,-73.730,-252.441,0.000,0
1639023051.897,-90.820,-64.453,-68.359,-121.582,0.000,0
1639023051.901,-75.684,-53.711,-54.688,80.078,0.000,0
1639023051.905,-87.891,-58.594,-54.688,114.258,0.000,0
1639023051.909,-111.328,-62.012,-59.570,-50.781,0.000,0
1639023051.913,-115.723,-56.641,-52.734,-247.070,0.000,0
1639023051.917,-87.891,-59.570,-55.664,-173.828,0.000,0
1639023051.921,-73.242,-61.523,-55.176,62.500,0.000,0
1639023051.925,-87.891,-56.641,-49.316,126.953,0.000,0
1639023051.929,-110.352,-54.199,-58.594,-64.453,0.000,0
1639023051.933,-111.328,-55.176,-69.336,-247.559,0.000,0
1639023051.937,-67.871,-55.664,-62.012,-182.617,0.000,0
1639023051.940,-39.062,-52.734,-53.711,44.922,0.000,0
1639023051.944,-76.660,-51.270,-54.688,135.254,0.000,0
1639023051.948,-106.445,-52.734,-51.270,-10.742,0.000,0
1639023051.952,-85.449,-59.570,-58.105,-189.453,0.000,0
1639023051.956,-91.797,-49.805,-57.129,-197.266,0.000,0
1639023051.960,-67.383,-39.551,-42.480,10.254,0.000,0
1639023051.964,-63.965,-42.480,-38.086,134.766,0.000,0
1639023051.968,-109.375,-43.945,-46.875,-3.906,0.000,0
1639023051.972,-122.559,-43.945,-53.223,-201.660,0.000,0
1639023051.976,-68.359,-43.457,-47.852,-217.773,0.000,0
1639023051.980,-36.621,-37.598,-37.598,-10.254,0.000,0
1639023051.983,-50.293,-31.738,-30.273,157.715,0.000,0
1639023051.987,-74.707,-36.133,-36.133,65.918,0.000,0
1639023051.991,-82.520,-38.574,-43.945,-165.527,0.000,0
1639023051.995,-47.363,-38.086,-42.480,-204.102,0.000,0
1639023051.999,-30.762,-32.715,-40.039,-24.414,0.000,0
1639023052.003,-47.852,-21.973,-31.738,128.906,0.000,0
1639023052.007,-83.984,-29.785,-33.203,82.031,0.000,0
1639023052.010,-77.148,-40.527,-40.039,-127.441,0.000,0
1639023052.015,-51.270,-37.598,-39.062,-200.195,0.000,0
1639023052.019,-30.762,-35.645,-31.738,-41.504,0.000,0
1639023052.022,-28.320,-31.250,-26.367,142.578,0.000,0
1639023052.026,-60.547,-33.203,-37.598,113.770,0.000,0
1639023052.030,-84.473,-38.574,-41.016,-114.258,0.000,0
1639023052.034,-63.965,-42.969,-41.504,-225.586,0.000,0
1639023052.038,-35.645,-38.574,-34.668,-81.055,0.000,0
1639023052.042,-28.320,-41.016,-32.715,136.719,0.000,0
1639023052.046,-63.477,-41.992,-30.273,127.930,0.000,0
1639023052.050,-105.469,-45.898,-34.180,-94.727,0.000,0
1639023052.053,-91.797,-48.340,-42.969,-234.375,0.000,0
1639023052.057,-51.270,-40.527,-33.691,-132.324,0.000,0
1639023052.062,-46.387,-35.156,-25.391,83.496,0.000,0
1639023052.065,-63.965,-35.645,-26.855,139.160,0.000,0
1639023052.069,-81.543,-46.875,-39.062,-54.688,0.000,0
1639023052.073,-87.891,-58.105,-48.828,-229.980,0.000,0
1639023052.077,-61.035,-54.199,-41.992,-142.090,0.000,0
1639023052.081,-34.668,-42.969,-35.645,76.660,0.000,0
1639023052.085,-58.105,-48.828,-40.039,151.855,0.000,0
1639023052.089,-101.562,-58.594,-45.410,-20.508,0.000,0
1639023052.092,-104.980,-52.246,-43.457,-223.145,0.000,0
1639023052.096,-57.129,-44.434,-32.715,-167.480,0.000,0
1639023052.100,-23.438,-51.270,-29.785,61.523,0.000,0
1639023052.104,-57.617,-52.734,-32.715,152.832,0.000,0
1639023052.109,-103.516,-52.734,-38.086,0.977,0.000,0
1639023052.113,-95.703,-60.059,-44.922,-191.895,0.000,0
1639023052.117,-64.941,-55.664,-43.457,-182.129,0.000,0
1639023052.120,-50.293,-43.457,-33.691,16.113,0.000,2
1639023052.124,-63.965,-41.504,-29.785,149.414,0.000,0
1639023052.128,-83.496,-50.293,-42.480,30.273,0.000,0
1639023052.132,-72.266,-63.965,-54.688,-167.969,0.000,0
1639023052.136,-65.430,-56.641,-42.480,-202.148,0.000,0
1639023052.140,-56.641,-42.480,-28.809,-23.926,0.000,0
1639023052.144,-47.363,-44.434,-26.855,153.809,0.000,0
1639023052.147,-79.590,-45.898,-26.855,59.082,0.000,0
1639023052.151,-98.145,-40.527,-33.691,-175.781,0.000,0
1639023052.156,-58.594,-33.691,-31.250,-218.262,0.000,0
1639023052.159,-29.785,-31.738,-21.484,-17.578,0.000,0
1639023052.163,-42.969,-32.227,-18.555,148.438,0.000,0
1639023052.167,-60.059,-31.250,-19.531,70.801,0.000,0
1639023052.171,-76.660,-30.762,-22.949,-137.207,0.000,0
1639023052.175,-55.176,-30.273,-21.973,-205.566,0.000,0
1639023052.179,-26.855,-25.879,-13.672,-31.250,0.000,0
1639023052.183,-21.973,-18.555,-9.277,164.551,0.000,0
1639023052.186,-50.293,-13.672,-7.324,115.723,0.000,0
1639023052.190,-65.430,-20.020,-14.648,-86.914,0.000,0
1639023052.194,-52.246,-23.438,-17.090,-184.570,0.000,0
1639023052.198,-27.344,-18.555,-4.395,-64.941,0.000,0
1639023052.202,-22.949,-16.602,0.977,140.137,0.000,0
1639023052.206,-46.387,-29.297,-6.836,161.133,0.000,0
1639023052.210,-64.941,-37.598,-17.090,-54.688,0.000,0
1639023052.214,-63.477,-30.273,-17.090,-219.238,0.000,0
1639023052.218,-41.992,-29.297,-13.184,-109.375,0.000,0
1639023052.222,-19.531,-35.645,-10.742,121.582,0.000,0
1639023052.226,-51.758,-39.062,-15.625,148.926,0.000,0
1639023052.229,-89.355,-36.621,-22.461,-61.523,0.000,0
1639023052.233,-76.172,-37.109,-27.344,-214.355,0.000,0
1639023052.237,-31.738,-40.039,-30.762,-114.746,0.000,0
1639023052.241,-43.945,-27.344,-21.973,78.613,0.000,0
1639023052.245,-65.430,-20.996,-17.578,139.648,0.000,0
1639023052.249,-71.289,-29.297,-28.809,-26.367,0.000,0
1639023052.253,-62.500,-31.250,-34.180,-201.660,0.000,0
1639023052.257,-43.457,-28.809,-22.461,-165.527,0.000,0
1639023052.261,-33.203,-27.344,-11.230,44.922,0.000,0
1639023052.265,-32.227,-30.273,-16.602,168.945,0.000,0
1639023052.269,-53.223,-39.062,-27.344,22.949,0.000,0
1639023052.272,-74.219,-38.086,-29.785,-177.246,0.000,0
1639023052.276,-65.430,-35.156,-26.367,-175.781,0.000,0
1639023052.280,-29.785,-42.480,-21.484,35.156,0.000,0
1639023052.284,-41.016,-44.434,-25.391,171.387,0.000,0
1639023052.288,-99.609,-41.992,-31.738,23.438,0.000,0
1639023052.292,-110.840,-47.363,-33.203,-182.617,0.000,0
1639023052.296,-69.336,-44.434,-29.785,-189.453,0.000,0
1639023052.300,-33.203,-31.250,-19.043,5.371,0.000,0
1639023052.304,-41.504,-23.438,-11.719,158.691,0.000,0
1639023052.308,-73.242,-32.715,-22.949,71.777,0.000,0
1639023052.312,-80.566,-40.039,-35.645,-136.719,0.000,0
1639023052.315,-53.223,-41.016,-30.762,-185.059,0.000,0
1639023052.319,-26.367,-39.551,-23.926,-25.391,0.000,0
1639023052.323,-31.250,-30.273,-19.043,142.578,0.000,0
1639023052.327,-49.805,-40.527,-24.902,121.582,0.000,0
1639023052.331,-90.820,-48.340,-27.344,-121.094,0.000,0
1639023052.335,-85.938,-42.969,-24.902,-232.910,0.000,0
1639023052.339,-36.621,-41.992,-29.785,-43.457,0.000,0
1639023052.343,-24.902,-44.434,-28.320,165.039,0.000,0
1639023052.347,-57.617,-37.109,-20.508,115.723,0.000,0
1639023052.351,-87.891,-36.621,-25.391,-105.957,0.000,0
1639023052.355,-75.195,-41.504,-29.297,-209.473,0.000,0
1639023052.358,-31.738,-33.203,-22.461,-76.660,0.000,0
1639023052.362,-13.184,-33.203,-20.508,134.766,0.000,0
1639023052.366,-32.715,-38.574,-20.020,144.043,0.000,0
1639023052.370,-42.969,-44.434,-23.926,-41.992,0.000,0
1639023052.374,-56.641,-51.270,-30.273,-185.547,0.000,0
1639023052.378,-45.410,-35.645,-19.043,-105.469,0.000,0
1639023052.382,-33.691,-27.832,-11.719,121.582,0.000,0
1639023052.385,-47.852,-36.621,-18.066,170.410,0.000,0
1639023052.390,-74.219,-39.551,-23.438,-39.551,0.000,0
1639023052.394,-67.383,-35.156,-26.855,-209.961,0.000,0
1639023052.398,-24.902,-32.227,-27.832,-119.141,0.000,0
1639023052.401,-14.160,-39.062,-30.273,94.238,0.000,0
1639023052.405,-51.270,-41.992,-30.762,162.109,0.000,0
1639023052.409,-65.918,-41.504,-36.621,-1.465,0.000,0
1639023052.413,-50.781,-46.875,-50.781,-185.547,0.000,0
1639023052.417,-32.715,-47.363,-51.758,-129.395,0.000,0
1639023052.421,-20.020,-36.133,-37.598,72.754,0.000,0
1639023052.425,-29.297,-34.180,-33.203,167.480,0.000,0
1639023052.428,-52.734,-41.992,-42.480,25.879,0.000,0
1639023052.432,-66.406,-37.598,-40.039,-173.828,0.000,0
1639023052.437,-45.898,-32.715,-25.391,-164.062,0.000,0
1639023052.440,-5.859,-29.785,-21.484,49.316,0.000,0
1639023052.444,3.418,-27.344,-24.902,187.988,0.000,0
1639023052.448,-27.832,-24.902,-21.484,57.129,0.000,0
1639023052.452,-47.363,-20.996,-24.414,-149.902,0.000,0
1639023052.456,-34.180,-23.438,-28.809,-155.273,0.000,0
1639023052.460,0.000,-22.461,-17.578,48.828,0.000,0
1639023052.464,2.441,-20.020,-13.184,203.125,0.000,0
1639023052.468,-45.410,-19.043,-15.137,81.543,0.000,0
1639023052.471,-63.965,-22.461,-16.113,-141.602,0.000,0
1639023052.475,-24.414,-33.203,-18.555,-173.340,0.000,0
1639023052.479,10.742,-26.855,-14.160,2.930,0.000,0
1639023052.484,-7.324,-13.672,-11.230,173.340,0.000,0
1639023052.487,-35.156,-20.508,-16.113,125.488,0.000,0
1639023052.491,-51.270,-30.762,-21.973,-94.727,0.000,0
1639023052.495,-51.270,-25.879,-23.438,-195.312,0.000,0
1639023052.499,-15.137,-20.996,-18.066,-41.016,0.000,0
1639023052.503,0.977,-23.438,-13.672,168.457,0.000,0
1639023052.507,-21.484,-31.738,-20.996,169.922,0.000,0
1639023052.511,-67.871,-30.762,-23.926,-67.383,0.000,0
1639023052.515,-65.918,-25.391,-15.137,-210.449,0.000,0
1639023052.518,-23.438,-27.344,-12.695,-62.012,0.000,0
1639023052.522,-8.301,-32.715,-8.789,156.738,0.000,0
1639023052.526,-29.297,-34.668,-6.836,149.414,0.000,0
1639023052.530,-52.734,-32.715,-12.695,-48.828,0.000,0
1639023052.534,-47.852,-29.785,-12.207,-175.781,0.000,0
1639023052.538,-20.996,-30.762,-8.789,-84.961,0.000,0
1639023052.542,-8.789,-29.297,-1.953,124.512,0.000,0
1639023052.546,-30.273,-29.785,-7.324,163.574,0.000,0
1639023052.550,-54.688,-28.809,-18.555,-25.879,0.000,0
1639023052.553,-52.734,-29.297,-16.602,-180.176,0.000,0
1639023052.557,-33.203,-30.762,-11.719,-103.516,0.000,0
1639023052.561,-15.137,-27.832,-3.906,85.938,0.000,0
1639023052.565,-26.855,-29.785,-4.883,174.805,0.000,0
1639023052.569,-63.965,-37.109,-15.625,17.090,0.000,0
1639023052.573,-73.730,-29.785,-14.648,-204.590,0.000,0
1639023052.577,-50.781,-26.367,-11.230,-156.250,0.000,0
1639023052.581,-15.625,-35.156,-10.742,74.707,0.000,0
1639023052.585,-37.598,-41.504,-9.766,172.852,0.000,0
1639023052.589,-92.773,-42.969,-17.090,21.484,0.000,0
1639023052.593,-85.938,-38.574,-21.973,-173.340,0.000,0
1639023052.597,-36.621,-39.062,-22.949,-158.203,0.000,0
1639023052.600,-18.066,-37.598,-16.113,45.410,0.000,0
1639023052.604,-38.574,-27.344,-11.230,169.434,0.000,0
1639023052.608,-53.711,-29.297,-16.113,53.223,0.000,0
1639023052.612,-50.781,-43.945,-25.879,-151.855,0.000,0
1639023052.616,-63.477,-35.645,-22.949,-196.289,0.000,0
1639023052.620,-33.691,-28.809,-13.672,-7.812,0.000,0
1639023052.624,-26.855,-34.180,-13.672,155.273,0.000,0
1639023052.628,-52.246,-29.297,-18.066,70.312,0.000,0
1639023052.632,-66.406,-26.367,-20.020,-144.043,0.000,0
1639023052.636,-54.199,-34.668,-21.973,-213.867,0.000,0
1639023052.640,-17.578,-31.738,-17.090,-24.902,0.000,0
1639023052.643,-16.602,-26.367,-11.230,166.016,0.000,0
1639023052.647,-44.434,-36.621,-20.020,89.355,0.000,0
1639023052.651,-64.941,-41.504,-25.879,-124.512,0.000,0
1639023052.655,-41.504,-44.434,-22.461,-197.266,0.000,0
1639023052.659,-23.438,-55.664,-20.508,-49.805,0.000,0
1639023052.663,-43.457,-62.500,-11.230,129.395,0.000,0
1639023052.667,-67.871,-65.918,-4.883,108.398,0.000,0
1639023052.671,-82.520,-73.730,-18.555,-106.445,0.000,0
1639023052.675,-72.266,-72.266,-23.438,-221.191,0.000,0
1639023052.679,-49.805,-71.777,-13.672,-88.867,0.000,0
1639023052.683,-28.809,-70.312,-8.301,113.281,0.000,0
1639023052.686,-54.199,-66.895,-13.672,126.465,0.000,0
1639023052.690,-85.938,-77.637,-24.902,-73.242,0.000,0
1639023052.694,-79.102,-78.613,-25.879,-222.656,0.000,0
1639023052.698,-33.691,-73.242,-13.672,-112.305,0.000,0
1639023052.702,11.230,-82.520,-14.648,131.348,0.000,0
1639023052.706,-35.156,-75.195,-14.160,157.227,0.000,0
1639023052.710,-83.496,-68.848,-20.020,-51.758,0.000,0
1639023052.714,-83.496,-77.148,-33.203,-211.914,0.000,0
1639023052.718,-42.969,-79.102,-30.273,-119.141,0.000,0
1639023052.722,-8.301,-75.684,-22.461,96.680,0.000,0
1639023052.726,-43.945,-72.754,-19.531,155.273,0.000,0
1639023052.729,-76.660,-71.289,-25.879,-6.836,0.000,0
1639023052.733,-61.523,-76.172,-29.297,-186.035,0.000,0
1639023052.737,-39.551,-77.637,-23.438,-137.207,0.000,0
1639023052.741,-14.648,-74.707,-19.531,75.684,0.000,0
1639023052.745,-24.902,-74.707,-20.996,187.012,0.000,0
1639023052.749,-75.195,-76.660,-20.508,41.016,0.000,0
1639023052.753,-85.938,-83.008,-24.902,-172.363,0.000,0
1639023052.757,-45.410,-83.496,-28.320,-157.227,0.000,0
1639023052.760,-11.719,-80.078,-20.996,67.871,0.000,0
1639023052.765,-30.273,-74.707,-20.020,190.918,0.000,0
1639023052.769,-62.500,-68.359,-20.996,47.852,0.000,0
1639023052.772,-69.824,-75.684,-26.855,-166.504,0.000,0
1639023052.776,-42.969,-79.102,-28.809,-172.363,0.000,0
1639023052.780,-20.020,-72.266,-20.020,16.113,0.000,0
1639023052.784,-21.973,-66.895,-18.066,165.527,0.000,0
1639023052.788,-38.574,-67.383,-23.926,83.984,0.000,0
1639023052.792,-45.898,-76.660,-31.250,-115.723,0.000,0
1639023052.796,-56.152,-75.684,-26.855,-185.547,0.000,0
1639023052.799,-41.992,-66.406,-17.578,-14.160,0.000,0
1639023052.803,-25.879,-70.312,-15.625,184.082,0.000,0
1639023052.807,-43.945,-74.707,-18.555,119.629,0.000,0
1639023052.811,-66.406,-70.801,-25.879,-110.840,0.000,0
1639023052.815,-52.734,-69.336,-29.785,-197.266,0.000,0
1639023052.819,-21.484,-72.266,-23.438,-23.438,0.000,0
1639023052.823,-15.137,-61.035,-11.719,173.340,0.000,0
1639023052.827,-41.992,-54.199,-14.648,129.395,0.000,0
1639023052.831,-55.176,-65.430,-30.762,-74.707,0.000,0
1639023052.835,-43.945,-76.172,-40.527,-186.523,0.000,0
1639023052.838,-18.066,-76.660,-34.668,-54.688,0.000,0
1639023052.842,-26.367,-62.012,-19.043,136.230,0.000,0
1639023052.846,-55.176,-62.500,-20.508,137.695,0.000,0
1639023052.850,-52.246,-73.242,-29.785,-47.363,0.000,0
1639023052.854,-63.965,-70.801,-31.250,-203.125,0.000,0
1639023052.858,-54.199,-66.406,-32.227,-108.398,0.000,0
1639023052.862,-32.227,-61.523,-25.879,132.324,0.000,0
1639023052.866,-41.992,-59.082,-23.926,187.500,0.000,0
1639023052.870,-62.500,-62.500,-31.738,-26.367,0.000,0
1639023052.874,-58.594,-62.500,-31.738,-194.824,0.000,0
1639023052.878,-17.578,-63.477,-31.250,-90.332,0.000,0
1639023052.882,19.043,-65.430,-29.785,137.695,0.000,0
1639023052.885,-20.996,-59.570,-17.578,198.242,0.000,0
1639023052.889,-58.105,-57.617,-16.602,22.949,0.000,0
1639023052.893,-43.457,-62.500,-24.902,-160.645,0.000,0
1639023052.897,-20.508,-66.406,-27.832,-100.098,0.000,0
1639023052.901,-7.812,-56.152,-14.648,94.238,0.000,0
1639023052.905,-23.926,-51.270,-8.789,180.664,0.000,0
1639023052.909,-52.246,-60.059,-19.531,41.504,0.000,0
1639023052.913,-60.547,-69.336,-25.879,-152.832,0.000,0
1639023052.917,-50.781,-64.941,-23.926,-157.227,0.000,0
1639023052.921,-18.066,-58.594,-21.973,48.828,0.000,0
1639023052.924,-18.555,-64.453,-22.461,202.148,0.000,0
1639023052.928,-43.945,-66.895,-26.367,74.707,0.000,0
1639023052.932,-52.734,-66.895,-32.715,-146.484,0.000,0
1639023052.936,-44.434,-62.500,-32.227,-179.199,0.000,0
1639023052.940,-4.395,-64.453,-31.250,37.109,0.000,0
1639023052.944,6.348,-64.453,-30.273,202.637,0.000,0
1639023052.948,-53.711,-57.129,-25.879,91.309,0.000,0
1639023052.952,-59.082,-58.594,-33.691,-111.328,0.000,0
1639023052.956,-27.832,-60.547,-37.109,-154.785,0.000,0
1639023052.960,-15.137,-51.270,-22.461,12.695,0.000,0
1639023052.964,-16.113,-40.527,-13.184,181.152,0.000,0
1639023052.968,-29.297,-37.598,-23.926,131.836,0.000,0
1639023052.971,-26.367,-40.039,-32.227,-49.316,0.000,0
1639023052.975,-26.855,-36.133,-30.273,-145.020,0.000,0
1639023052.979,-13.184,-31.250,-23.926,-21.484,0.000,0
1639023052.983,18.066,-27.832,-18.066,191.406,0.000,0
1639023052.987,24.414,-33.203,-21.973,200.684,0.000,0
1639023052.991,-48.828,-35.156,-24.414,-31.738,0.000,0
1639023052.995,-34.180,-30.273,-22.949,-160.645,0.000,0
1639023052.999,15.137,-28.809,-12.695,-8.301,0.000,0
1639023053.003,-10.254,-26.855,-9.277,201.660,0.000,1
1639023053.007,-22.461,-25.391,-12.207,196.289,0.000,0
1639023053.011,-41.992,-25.879,-16.113,7.324,0.000,0
1639023053.014,-16.602,-24.414,-25.879,-123.535,0.000,0
1639023053.018,18.066,-20.996,-21.973,-18.555,0.000,0
1639023053.022,11.230,-25.391,-19.531,192.383,0.000,0
1639023053.026,-2.930,-26.855,-22.461,219.238,0.000,0
1639023053.030,-15.625,-32.227,-27.344,43.945,0.000,0
1639023053.034,-13.184,-35.156,-27.832,-120.605,0.000,0
1639023053.038,-19.043,-23.438,-13.184,-62.988,0.000,0
1639023053.041,-8.789,-21.484,-9.766,166.992,0.000,0
1639023053.046,-15.625,-27.832,-20.996,233.887,0.000,0
1639023053.050,-40.527,-36.133,-30.762,58.594,0.000,0
1639023053.054,-32.715,-38.574,-29.785,-124.023,0.000,0
1639023053.057,3.418,-30.273,-20.508,-81.055,0.000,0
1639023053.061,21.484,-28.320,-18.066,133.789,0.000,0
1639023053.065,13.184,-31.250,-20.996,241.699,0.000,0
1639023053.069,-17.090,-30.762,-26.855,91.309,0.000,0
1639023053.073,-33.203,-37.109,-33.691,-109.375,0.000,0
1639023053.077,2.930,-51.270,-32.227,-86.914,0.000,0
1639023053.081,18.555,-37.109,-18.555,113.770,0.000,0
1639023053.085,-3.418,-24.902,-14.160,233.398,0.000,0
1639023053.088,-19.043,-37.109,-25.879,124.512,0.000,0
1639023053.093,-28.320,-42.969,-31.250,-87.891,0.000,0
1639023053.097,-12.207,-34.180,-24.414,-117.188,0.000,0
1639023053.100,28.320,-31.250,-20.996,85.938,0.000,0
1639023053.104,38.574,-34.668,-16.602,254.883,0.000,0
1639023053.108,-5.859,-37.109,-20.020,162.109,0.000,0
1639023053.112,-19.531,-42.480,-30.273,-61.035,0.000,0
1639023053.116,-2.930,-36.621,-26.367,-105.957,0.000,0
1639023053.120,38.086,-35.645,-21.484,76.172,0.000,0
1639023053.124,44.922,-36.621,-26.367,251.953,0.000,0
1639023053.127,-21.973,-29.785,-27.344,171.875,0.000,0
1639023053.131,-42.480,-37.598,-34.180,-41.016,0.000,0
1639023053.135,-2.930,-43.945,-35.156,-106.445,0.000,0
1639023053.140,18.066,-35.645,-21.484,42.480,0.000,0
1639023053.143,23.438,-31.250,-16.602,229.980,0.000,0
1639023053.147,10.742,-34.180,-24.902,208.984,0.000,0
1639023053.151,-28.809,-41.504,-33.691,-5.859,0.000,0
1639023053.155,-30.273,-40.039,-34.180,-127.930,0.000,0
1639023053.159,5.859,-31.738,-31.250,4.395,0.000,0
1639023053.163,35.156,-32.227,-25.391,230.469,0.000,0
1639023053.167,30.273,-44.434,-30.762,261.230,0.000,0
1639023053.170,-13.672,-38.574,-33.203,38.086,0.000,0
1639023053.174,-30.273,-34.668,-27.832,-129.395,0.000,0
1639023053.178,8.301,-41.504,-20.020,-12.207,0.000,0
1639023053.182,20.020,-38.574,-18.555,201.660,0.000,0
1639023053.186,-3.906,-30.273,-19.043,238.281,0.000,0
1639023053.190,-11.230,-30.762,-22.461,57.129,0.000,0
1639023053.194,-7.324,-39.551,-32.227,-108.398,0.000,0
1639023053.198,-1.465,-36.621,-25.391,-49.805,0.000,0
1639023053.202,17.090,-29.297,-16.602,172.363,0.000,0
1639023053.206,24.414,-32.715,-20.996,268.555,0.000,0
1639023053.209,2.441,-40.039,-27.344,102.051,0.000,0
1639023053.213,-23.438,-43.457,-28.320,-91.309,0.000,0
1639023053.217,-1.953,-36.133,-21.973,-54.688,0.000,0
1639023053.221,10.742,-26.367,-12.695,166.992,0.000,0
1639023053.225,7.324,-34.180,-12.207,289.062,0.000,0
1639023053.229,-10.254,-38.574,-18.555,135.254,0.000,0
1639023053.233,-20.508,-29.785,-18.555,-63.477,0.000,0
1639023053.237,10.742,-28.809,-14.648,-54.199,0.000,0
1639023053.241,33.203,-27.832,-10.254,155.762,0.000,0
1639023053.245,9.766,-24.902,-6.836,290.527,0.000,0
1639023053.249,-24.414,-32.715,-16.602,176.758,0.000,0
1639023053.253,-17.090,-39.551,-30.273,-30.762,0.000,0
1639023053.256,38.086,-41.016,-39.062,-51.758,0.000,0
1639023053.260,20.508,-29.297,-20.508,114.746,0.000,0
1639023053.264,1.465,-19.531,-2.930,257.812,0.000,0
1639023053.268,2.930,-25.391,-12.695,192.383,0.000,0
1639023053.272,-27.344,-31.250,-18.066,-33.203,0.000,0
1639023053.276,-16.113,-33.203,-16.602,-106.445,0.000,0
1639023053.280,16.113,-31.738,-14.160,94.238,0.000,0
1639023053.284,29.297,-23.438,-8.301,290.039,0.000,0
1639023053.288,-2.441,-22.461,-14.648,219.727,0.000,0
1639023053.292,-27.344,-27.832,-23.438,-11.719,0.000,0
1639023053.295,2.441,-29.785,-21.484,-108.398,0.000,0
1639023053.299,41.504,-34.180,-16.113,65.430,0.000,0
1639023053.303,48.828,-33.203,-13.184,268.066,0.000,0
1639023053.307,11.230,-31.738,-15.625,233.398,0.000,0
1639023053.311,-31.738,-37.109,-20.508,15.625,0.000,0
1639023053.315,-9.277,-43.457,-27.832,-110.840,0.000,0
1639023053.319,32.227,-41.016,-23.438,22.461,0.000,0
1639023053.323,13.184,-32.715,-10.742,217.773,0.000,0
1639023053.327,-8.301,-36.621,-16.113,222.168,0.000,0
1639023053.331,-15.137,-39.062,-28.809,28.809,0.000,0
1639023053.335,-29.785,-41.504,-32.715,-125.000,0.000,0
1639023053.339,-12.207,-38.086,-27.832,-21.484,0.000,0
1639023053.342,31.738,-30.762,-19.043,201.660,0.000,0
1639023053.346,6.836,-36.133,-23.438,238.770,0.000,0
1639023053.350,-33.203,-36.133,-25.391,55.176,0.000,0
1639023053.354,-30.273,-29.297,-19.043,-126.953,0.000,0
1639023053.358,-4.883,-34.180,-22.949,-54.688,0.000,0
1639023053.362,34.668,-42.480,-27.344,189.453,0.000,0
1639023053.366,6.836,-36.621,-20.508,248.535,0.000,0
1639023053.369,-31.250,-35.645,-20.508,72.266,0.000,0
1639023053.374,-24.902,-42.480,-27.344,-107.422,0.000,0
1639023053.378,5.859,-42.969,-29.785,-69.824,0.000,0
1639023053.382,22.949,-34.668,-20.996,138.672,0.000,0
1639023053.385,4.395,-32.715,-17.578,253.906,0.000,0
1639023053.389,-21.484,-48.828,-24.414,110.352,0.000,0
1639023053.393,-27.832,-54.688,-36.621,-102.051,0.000,0
1639023053.397,-10.742,-49.805,-42.969,-86.914,0.000,0
1639023053.401,12.695,-43.457,-25.391,118.652,0.000,0
1639023053.405,22.949,-40.039,-16.113,260.742,0.000,0
1639023053.409,0.000,-51.270,-31.250,146.973,0.000,0
1639023053.413,-50.781,-53.711,-34.668,-84.473,0.000,0
1639023053.416,-22.949,-55.176,-27.832,-108.887,0.000,0
1639023053.421,22.461,-51.270,-24.414,94.727,0.000,0
1639023053.425,8.789,-44.434,-23.438,249.512,0.000,0
1639023053.428,-25.879,-44.434,-21.973,163.574,0.000,0
1639023053.432,-17.578,-46.387,-22.461,-62.988,0.000,0
1639023053.436,-1.465,-54.688,-28.809,-129.883,0.000,0
1639023053.440,12.695,-52.246,-25.391,61.035,0.000,0
1639023053.444,7.812,-48.340,-19.531,238.770,0.000,0
1639023053.448,-17.090,-45.898,-20.020,179.199,0.000,0
1639023053.452,-0.488,-53.711,-27.344,-11.719,0.000,0
1639023053.456,-3.906,-48.340,-25.391,-121.094,0.000,0
1639023053.459,8.789,-31.738,-13.672,16.602,0.000,0
1639023053.463,36.133,-33.203,-11.719,216.309,0.000,0
1639023053.468,-2.441,-36.621,-16.602,196.777,0.000,0
